ch_0,O2,Fp1,Fp2,C3,C4,P7,P8,O1,accel_0,accel_1,accel_2,ch_12,ch_13,ch_14,ch_15,ch_16,ch_17,ch_18,ch_19,ch_20,ch_21,Timestamp,Marker
0.0,0.0,0.0,0.0,0.0,0.0,0.0,0.0,0.0,0.0,0.0,0.0,192.0,0.0,0.0,0.0,0.0,0.0,0.0,0.0,0.0,0.0,0.0,0.0
1.0,20010.421575358105,9930.231860903725,14412.270714315262,8329.93636488156,16345.115464343486,36379.00637137966,52540.301089322704,50837.74636241751,0.146,-0.034,1.016,192.0,4.0,144.0,254.0,240.0,31.0,192.0,0.0,0.0,0.0,0.01607036590576172,0.0
2.0,20023.273828419904,9935.328058639534,14419.736196963335,8332.372705027188,16349.563461490092,36391.612755252456,53628.294602429225,54440.06525755707,0.146,-0.034,1.016,192.0,0.0,0.0,0.0,0.0,0.0,0.0,0.0,0.0,0.0,0.49692678451538086,0.0
3.0,20032.929782024596,9937.898509251894,14410.61668522557,8329.914013137104,16350.278717312662,36385.15310110487,53105.59905834187,51590.575467416704,0.146,-0.034,1.016,192.0,0.0,0.0,0.0,0.0,0.0,0.0,0.0,0.0,0.0,0.497100830078125,0.0
4.0,20047.793692087376,9935.261003406167,14401.474821743348,8320.034542087858,16341.338019530538,36367.74109217418,51954.595977615834,47612.50139623897,0.146,-0.034,1.016,192.0,0.0,0.0,0.0,0.0,0.0,0.0,0.0,0.0,0.0,0.497114896774292,0.0
5.0,20044.19506123007,9931.997648715693,14410.28140905874,8317.17351879758,16337.426464250859,36368.2328305522,52328.6524210754,49931.986621855096,0.146,-0.034,1.016,192.0,0.0,0.0,0.0,0.0,0.0,0.0,0.0,0.0,0.0,0.49712657928466797,0.0
6.0,20055.97443055802,9940.044276719604,14422.261944086784,8325.197795057034,16346.590679477535,36385.42132203833,53520.000400543264,54217.151310104295,0.146,-0.034,1.016,192.0,0.0,0.0,0.0,0.0,0.0,0.0,0.0,0.0,0.0,0.49713778495788574,0.0
7.0,20060.86946259373,9949.20849194628,14414.483537016338,8341.112237109213,16356.738371460246,36380.77215919163,53315.19136609929,52571.21355190439,0.146,-0.034,1.016,192.0,0.0,0.0,0.0,0.0,0.0,0.0,0.0,0.0,0.0,0.49715137481689453,0.0
8.0,20020.926895252098,9944.246404677202,14413.433005026938,8338.005344629926,16357.654792982912,36376.502976000666,52022.411170293235,47959.221656229696,0.15,-0.03,1.014,192.0,4.0,176.0,255.0,16.0,31.0,176.0,0.0,0.0,0.0,0.4971628189086914,0.0
9.0,20028.034749988885,9939.172558685847,14414.461185271883,8328.975239869982,16353.407961536404,36376.4359207673,52145.725744453164,49070.773907992116,0.15,-0.03,1.014,192.0,0.0,0.0,0.0,0.0,0.0,0.0,0.0,0.0,0.0,0.4971740245819092,0.0
10.0,20056.957907314052,9943.575852343542,14425.100615632608,8337.178330085078,16360.180540106363,36390.80809245206,53318.36531381194,53712.98536217039,0.15,-0.03,1.014,192.0,0.0,0.0,0.0,0.0,0.0,0.0,0.0,0.0,0.0,0.497204065322876,0.0
11.0,20075.956890101064,9950.661355335875,14424.966505165876,8345.537882511364,16368.473037299282,36385.935412160805,53499.660313088934,53221.44814985373,0.15,-0.03,1.014,192.0,0.0,0.0,0.0,0.0,0.0,0.0,0.0,0.0,0.0,0.49721670150756836,0.0
12.0,20054.610974146246,9949.856692535484,14417.344560306617,8345.761399955916,16370.104714644518,36381.62152548093,52260.948987120275,48486.65577014158,0.15,-0.03,1.014,192.0,0.0,0.0,0.0,0.0,0.0,0.0,0.0,0.0,0.0,0.49722790718078613,0.0
13.0,20046.474939164513,9947.286241923124,14419.199755096408,8338.854710919228,16368.42833381037,36384.34843830448,52046.10401941586,48447.45081036697,0.15,-0.03,1.014,192.0,0.0,0.0,0.0,0.0,0.0,0.0,0.0,0.0,0.0,0.4972405433654785,0.0
14.0,20057.382590458703,9950.3484309135,14429.9062406905,8341.291051064856,16372.183426878863,36396.37367682144,53150.32489899694,53131.08004702092,0.15,-0.03,1.014,192.0,0.0,0.0,0.0,0.0,0.0,0.0,0.0,0.0,0.0,0.4972517490386963,0.0
15.0,20038.92004953862,9957.612747861474,14436.052970415709,8355.484408793976,16381.839380483554,36413.271595629645,53642.979698536365,53881.718681063496,0.15,-0.03,1.014,192.0,0.0,0.0,0.0,0.0,0.0,0.0,0.0,0.0,0.0,0.49726295471191406,0.0
16.0,20046.67610486461,9961.859579307984,14425.502947032805,8360.625310018697,16385.14743866294,36397.82654021103,52439.27120438471,49199.609363032505,0.15,-0.03,1.014,192.0,0.0,0.0,0.0,0.0,0.0,0.0,0.0,0.0,0.0,0.49727392196655273,0.0
17.0,20046.6314013757,9957.791561817117,14427.358141822595,8348.287147079367,16379.671261271389,36399.10058964498,51912.64175327322,47915.68045803076,0.154,-0.026000000000000002,1.008,192.0,4.0,208.0,255.0,48.0,31.0,128.0,0.0,0.0,0.0,0.4972848892211914,0.0
18.0,20054.856843335252,9960.965509529771,14442.400865841017,8356.89256869466,16384.409831095916,36415.95380496428,52882.52864867791,52337.66017409089,0.154,-0.026000000000000002,1.008,192.0,0.0,0.0,0.0,0.0,0.0,0.0,0.0,0.0,0.0,0.4972960948944092,0.0
19.0,20062.657602150157,9969.548579400609,14448.547595566226,8372.739955513473,16397.329139391084,36426.81675276956,53642.59971888062,54330.45230274824,0.154,-0.026000000000000002,1.008,192.0,0.0,0.0,0.0,0.0,0.0,0.0,0.0,0.0,0.0,0.49730896949768066,0.0
20.0,20039.6800088501,9970.219131734268,14441.707961762902,8373.343452613766,16400.748956292744,36417.00433695368,52586.725662556375,50135.432199887306,0.154,-0.026000000000000002,1.008,192.0,0.0,0.0,0.0,0.0,0.0,0.0,0.0,0.0,0.0,0.49732017517089844,0.0
21.0,20077.812084890855,9968.140419499925,14441.886775718544,8360.446496063054,16393.127011433484,36410.343517106005,51827.79453132088,47570.390709685176,0.154,-0.026000000000000002,1.008,192.0,0.0,0.0,0.0,0.0,0.0,0.0,0.0,0.0,0.0,0.49733734130859375,0.0
22.0,20083.44472449359,9968.296881711112,14450.58160431166,8366.056783921336,16395.205723667827,36428.40372662589,52642.96265160593,51460.555369920185,0.154,-0.026000000000000002,1.008,192.0,0.0,0.0,0.0,0.0,0.0,0.0,0.0,0.0,0.0,0.49735283851623535,0.0
23.0,20084.182332060616,9974.041280036126,14452.90618573501,8372.382327602189,16402.045357471154,36432.58350283903,53620.85147152561,54464.629824713455,0.154,-0.026000000000000002,1.008,192.0,0.0,0.0,0.0,0.0,0.0,0.0,0.0,0.0,0.0,0.4973640441894531,0.0
24.0,20071.151265043172,9976.902303326406,14443.496101319326,8374.148115414157,16403.408813882925,36424.87215100195,52879.60057015426,50968.0793843364,0.154,-0.026000000000000002,1.008,192.0,0.0,0.0,0.0,0.0,0.0,0.0,0.0,0.0,0.0,0.4973750114440918,0.0
25.0,20062.165863772138,9975.36003295899,14444.770150753278,8369.566007800819,16397.172677179897,36430.325976649045,51833.89655755718,47534.650270301136,0.154,-0.026000000000000002,1.008,192.0,0.0,0.0,0.0,0.0,0.0,0.0,0.0,0.0,0.0,0.4973883628845215,0.0
26.0,20062.05410504986,9969.950910800804,14449.933403722454,8363.709850753528,16389.796601509643,36427.68847080332,52366.24805524923,50539.507036150346,0.154,-0.026000000000000002,1.008,192.0,0.0,0.0,0.0,0.0,0.0,0.0,0.0,0.0,0.0,0.49739933013916016,0.0
27.0,20067.552634185868,9972.320195713068,14452.705020034913,8366.459115321531,16390.422450354392,36433.23170342824,53479.5213913347,54374.59699804748,0.152,-0.03,1.01,192.0,4.0,192.0,255.0,16.0,31.0,144.0,0.0,0.0,0.0,0.49741053581237793,0.0
28.0,20046.139662997684,9972.297843968612,14441.663258273991,8367.710813011028,16389.886008487465,36418.01016545417,53070.283302102485,51859.82458112533,0.152,-0.03,1.01,192.0,0.0,0.0,0.0,0.0,0.0,0.0,0.0,0.0,0.0,0.4974212646484375,0.0
29.0,20055.080360779808,9967.4028119329,14431.247345357819,8366.615577532719,16383.739278762256,36404.48736005871,51879.20354356808,47679.154298204696,0.152,-0.03,1.01,192.0,0.0,0.0,0.0,0.0,0.0,0.0,0.0,0.0,0.0,0.4974331855773926,0.0
30.0,20063.238747505995,9959.669108351363,14435.717694248879,8356.154961127635,16374.798580980132,36409.82942698353,52181.71205302621,49678.09315658727,0.152,-0.03,1.01,192.0,0.0,0.0,0.0,0.0,0.0,0.0,0.0,0.0,0.0,0.49744439125061035,0.0
31.0,20076.560387201356,9964.63119562044,14446.67004903198,8367.241426377466,16381.414697338903,36418.63601429892,53364.879294023434,54102.68802674866,0.152,-0.03,1.01,192.0,0.0,0.0,0.0,0.0,0.0,0.0,0.0,0.0,0.0,0.49745798110961914,0.0
32.0,20061.048276549373,9966.285224710135,14437.394075083028,8364.46981006501,16383.62752003998,36412.511636318166,53235.84267328295,52820.6143165367,0.152,-0.03,1.01,192.0,0.0,0.0,0.0,0.0,0.0,0.0,0.0,0.0,0.0,0.4974691867828369,0.0
33.0,20057.53905266989,9963.200683975301,14432.946077936422,8352.310461081323,16380.230054882773,36405.91787170385,51990.02349257749,48061.25736966817,0.152,-0.03,1.01,192.0,0.0,0.0,0.0,0.0,0.0,0.0,0.0,0.0,0.0,0.4974803924560547,0.0
34.0,20058.321363725827,9958.126837983948,14433.817795970179,8356.13260938318,16375.513836802702,36406.007278681675,52021.96413540413,48863.57323689142,0.152,-0.03,1.01,192.0,0.0,0.0,0.0,0.0,0.0,0.0,0.0,0.0,0.0,0.49749255180358887,0.0
35.0,20060.757703871455,9957.612747861474,14441.663258273991,8356.55729252783,16377.324328103583,36416.713764275766,53172.073146351955,53542.77682814322,0.152,-0.03,1.01,192.0,0.0,0.0,0.0,0.0,0.0,0.0,0.0,0.0,0.0,0.49750351905822754,0.0
36.0,20071.48654121,9963.714774097774,14436.835281471645,8362.480504808487,16383.761630506711,36413.472761329744,53438.505940259216,53415.505995214706,0.152,-0.03,1.01,192.0,0.0,0.0,0.0,0.0,0.0,0.0,0.0,0.0,0.0,0.4975144863128662,0.0
37.0,20074.280509266915,9959.222073462257,14425.57000226617,8354.188007615568,16373.703345501823,36401.02283966814,52206.701303327245,48660.462935026044,0.14200000000000002,-0.03,1.014,192.0,4.0,112.0,255.0,16.0,31.0,176.0,0.0,0.0,0.0,0.4975273609161377,0.0
38.0,20069.720753398033,9954.617614104463,14427.67106624497,8354.947966927048,16370.216473366794,36404.15208389188,51908.260811359985,48238.46199970985,0.14200000000000002,-0.03,1.014,192.0,0.0,0.0,0.0,0.0,0.0,0.0,0.0,0.0,0.0,0.49753856658935547,0.0
39.0,20043.368046685227,9952.315384425567,14437.572889038669,8355.75262972744,16372.161075134407,36414.59034855251,52978.283521924444,52865.29545370286,0.14200000000000002,-0.03,1.014,192.0,0.0,0.0,0.0,0.0,0.0,0.0,0.0,0.0,0.0,0.49754953384399414,0.0
40.0,20022.223296430504,9958.104486239492,14440.14333965103,8369.856580478738,16383.62752003998,36426.906159747385,53584.820459463655,54013.23634543853,0.14200000000000002,-0.03,1.014,192.0,0.0,0.0,0.0,0.0,0.0,0.0,0.0,0.0,0.0,0.4975605010986328,0.0
41.0,20074.325212755826,9964.653547364896,14429.034522656742,8363.08400190878,16381.414697338903,36408.89065371641,52449.843579512075,49445.38914506306,0.14200000000000002,-0.03,1.014,192.0,0.0,0.0,0.0,0.0,0.0,0.0,0.0,0.0,0.0,0.4975759983062744,0.0
42.0,20079.55552095837,9959.02090776216,14426.66523774448,8349.695306980051,16368.316575088094,36400.66521175685,51855.28717700091,47808.10151196737,0.14200000000000002,-0.03,1.014,192.0,0.0,0.0,0.0,0.0,0.0,0.0,0.0,0.0,0.0,0.4975872039794922,0.0
43.0,20062.67995389461,9955.981070516238,14433.102540147609,8347.348373812243,16364.114447130496,36401.335764090516,52783.55512422981,52087.90178154728,0.14200000000000002,-0.03,1.014,192.0,0.0,0.0,0.0,0.0,0.0,0.0,0.0,0.0,0.0,0.4976029396057129,0.0
44.0,20044.463282163535,9959.445590906811,14430.129758135052,8344.532054010875,16367.109580887507,36403.03449666912,53603.03713119473,54442.188673280325,0.14200000000000002,-0.03,1.014,192.0,0.0,0.0,0.0,0.0,0.0,0.0,0.0,0.0,0.0,0.49761414527893066,0.0
45.0,20051.34761945577,9961.189026974323,14422.016074897776,8347.616594745707,16365.008516908709,36385.42132203833,52643.54379696176,50349.87483619152,0.14200000000000002,-0.03,1.014,192.0,0.0,0.0,0.0,0.0,0.0,0.0,0.0,0.0,0.0,0.49762535095214844,0.0
46.0,20048.330133954303,9954.192930959813,14419.870307430067,8336.4183707736,16352.938574902842,36375.653609711364,51811.29894391286,47497.30050531632,0.146,-0.03,1.014,192.0,4.0,144.0,255.0,16.0,31.0,176.0,0.0,0.0,0.0,0.497636079788208,0.0
47.0,20063.708134139557,9952.069515236559,14427.402845311504,8332.976202127482,16350.055199868108,36384.90723191586,52548.97356617136,51145.23931088916,0.146,-0.03,1.014,192.0,0.0,0.0,0.0,0.0,0.0,0.0,0.0,0.0,0.0,0.4976632595062256,0.0
48.0,20056.06383753584,9952.002460003194,14428.878060445555,8328.438798003053,16351.32924930206,36391.63510699691,53585.98275017533,54433.82912085404,0.146,-0.03,1.014,192.0,0.0,0.0,0.0,0.0,0.0,0.0,0.0,0.0,0.0,0.49767422676086426,0.0
49.0,20036.237840203983,9948.82851229054,14417.299856817706,8325.93540262406,16348.870557411976,36377.84408066799,52938.60917551627,51209.835852365,0.146,-0.03,1.014,192.0,0.0,0.0,0.0,0.0,0.0,0.0,0.0,0.0,0.0,0.49768733978271484,0.0
50.0,20030.940476768075,9942.547672098599,14409.387339280527,8318.156995553612,16340.7568741747,36365.57297296202,51853.07435429983,47521.39568583914,0.146,-0.03,1.014,192.0,0.0,0.0,0.0,0.0,0.0,0.0,0.0,0.0,0.0,0.4976980686187744,0.0
51.0,20027.744177310968,9936.40094237339,14415.958752150387,8314.424254229576,16337.873499139965,36372.01027536515,52322.952726239295,50230.2035963778,0.146,-0.03,1.014,192.0,0.0,0.0,0.0,0.0,0.0,0.0,0.0,0.0,0.0,0.4977092742919922,0.0
52.0,20011.226238158495,9936.959735984772,14424.56417376568,8316.16769029709,16341.002743363708,36381.80033943657,53476.72742327779,54275.15408696581,0.146,-0.03,1.014,192.0,0.0,0.0,0.0,0.0,0.0,0.0,0.0,0.0,0.0,0.49772024154663086,0.0
53.0,20000.609159542222,9939.373724385945,14416.808118439689,8316.570021697285,16343.684952698346,36373.06080735455,53183.31607381297,52106.56548816746,0.146,-0.03,1.014,192.0,0.0,0.0,0.0,0.0,0.0,0.0,0.0,0.0,0.0,0.49773120880126953,0.0
54.0,20039.21062221654,9938.703172052285,14408.582676480137,8307.092882048235,16335.794786905622,36360.45442348176,51956.09354449434,47747.30476704893,0.146,-0.03,1.014,192.0,0.0,0.0,0.0,0.0,0.0,0.0,0.0,0.0,0.0,0.4977421760559082,0.0
55.0,20059.416599204138,9934.568099328053,14407.666254957468,8305.416501214087,16327.301124012605,36347.91509484233,52152.4089160453,49369.48262089284,0.146,-0.03,1.014,192.0,0.0,0.0,0.0,0.0,0.0,0.0,0.0,0.0,0.0,0.4977548122406006,0.0
56.0,20061.472959694023,9938.099674951993,14414.639999227526,8315.944172852538,16331.95028685931,36362.10845257145,53327.753046483165,53927.38329498569,0.15,-0.028,1.01,192.0,4.0,176.0,255.0,32.0,31.0,144.0,0.0,0.0,0.0,0.49776625633239746,0.0
57.0,20044.552689141357,9942.592375587508,14415.109385861086,8319.185175798557,16340.7568741747,36373.843118410485,53322.74625572518,53005.57500190437,0.15,-0.028,1.01,192.0,0.0,0.0,0.0,0.0,0.0,0.0,0.0,0.0,0.0,0.49777722358703613,0.0
58.0,20033.66738959162,9940.603070330986,14408.448566013405,8318.268754275889,16339.773397418667,36363.5836677055,52099.30117121949,48161.54964703914,0.15,-0.028,1.01,192.0,0.0,0.0,0.0,0.0,0.0,0.0,0.0,0.0,0.0,0.4977881908416748,0.0
59.0,20031.789843057377,9936.892680751405,14411.153127092497,8315.094806563236,16335.124234571962,36364.07540608352,52029.98841166359,48612.317277469316,0.15,-0.028,1.01,192.0,0.0,0.0,0.0,0.0,0.0,0.0,0.0,0.0,0.0,0.4977991580963135,0.0
60.0,20041.49050015098,9940.670125564353,14424.497118532316,8314.826585629771,16339.438121251836,36375.22892656671,53167.42398350525,53311.54803175307,0.15,-0.028,1.01,192.0,0.0,0.0,0.0,0.0,0.0,0.0,0.0,0.0,0.0,0.49781012535095215,0.0
61.0,20028.928819767098,9947.263890178669,14423.826566198655,8320.325114765777,16347.171824833373,36377.79937717907,53562.55812198617,53599.5502590597,0.15,-0.028,1.01,192.0,0.0,0.0,0.0,0.0,0.0,0.0,0.0,0.0,0.0,0.49782371520996094,0.0
62.0,20016.523601594403,9946.101599466992,14411.600161981603,8317.21822228649,16345.450740510314,36363.5836677055,52326.64076407442,48846.58591110539,0.15,-0.028,1.01,192.0,0.0,0.0,0.0,0.0,0.0,0.0,0.0,0.0,0.0,0.497835636138916,0.0
63.0,20042.228107718005,9944.604032588486,14411.533106748237,8314.200736785024,16341.360371274994,36366.981132862704,51927.21509065809,48027.46153205175,0.15,-0.028,1.01,192.0,0.0,0.0,0.0,0.0,0.0,0.0,0.0,0.0,0.0,0.4978463649749756,0.0
64.0,20062.05410504986,9944.760494799673,14414.595295738614,8320.973315354982,16341.114502085986,36364.38833050589,52966.77237352996,52582.322368898676,0.15,-0.028,1.01,192.0,0.0,0.0,0.0,0.0,0.0,0.0,0.0,0.0,0.0,0.4978606700897217,0.0
65.0,20058.72369512602,9949.677878579841,14419.400920796505,8324.79546365684,16349.496406256725,36379.43105452431,53653.44031494145,54095.490765034054,0.15,-0.028,1.01,192.0,0.0,0.0,0.0,0.0,0.0,0.0,0.0,0.0,0.0,0.4978749752044678,0.0
66.0,20040.551726883856,9948.40382914589,14416.182269594941,8323.521414222887,16347.440045766836,36378.96166789075,52586.45744162291,49672.907551873635,0.15,-0.03,1.016,192.0,4.0,176.0,255.0,16.0,31.0,192.0,0.0,0.0,0.0,0.49788618087768555,0.0
67.0,20031.186345957085,9941.340677898012,14413.388301538027,8315.45243447452,16338.342885773527,36369.32806603051,51877.97419762304,47644.59850127679,0.15,-0.03,1.016,192.0,0.0,0.0,0.0,0.0,0.0,0.0,0.0,0.0,0.0,0.49789881706237793,0.0
68.0,20032.929782024596,9938.412599374366,14421.032598141743,8315.899469363627,16336.66650493938,36376.97236263423,52738.40460043008,51736.08532382075,0.15,-0.03,1.016,192.0,0.0,0.0,0.0,0.0,0.0,0.0,0.0,0.0,0.0,0.4979097843170166,0.0
69.0,20015.29425564936,9940.290145908612,14419.132699863041,8321.085074077258,16341.360371274994,36384.90723191586,53628.026381495765,54461.38882176743,0.15,-0.03,1.016,192.0,0.0,0.0,0.0,0.0,0.0,0.0,0.0,0.0,0.0,0.4979207515716553,0.0
70.0,20027.140680210672,9940.960698242272,14412.315417804173,8320.213356043501,16342.075627097563,36371.29501954258,52782.37048177367,50527.21357669993,0.15,-0.03,1.016,192.0,0.0,0.0,0.0,0.0,0.0,0.0,0.0,0.0,0.0,0.49793171882629395,0.0
71.0,20057.851977092265,9935.931555739828,14404.157031077986,8309.864498360694,16331.458548481292,36360.29796127057,51881.77399418045,47439.81181857727,0.15,-0.03,1.016,192.0,0.0,0.0,0.0,0.0,0.0,0.0,0.0,0.0,0.0,0.4979426860809326,0.0
72.0,20051.951116556065,9926.990857957704,14408.180345079942,8304.768300624884,16324.41774897787,36357.973379847215,52526.71122869387,50808.97966730352,0.15,-0.03,1.016,192.0,0.0,0.0,0.0,0.0,0.0,0.0,0.0,0.0,0.0,0.4979531764984131,0.0
73.0,20043.39039842968,9927.974334713737,14411.980141637343,8305.192983769535,16327.926972857354,36366.087063084495,53602.433634094436,54355.95564317175,0.15,-0.03,1.016,192.0,0.0,0.0,0.0,0.0,0.0,0.0,0.0,0.0,0.0,0.49796628952026367,0.0
74.0,20031.25340119045,9931.416503359855,14405.453432256394,8308.635152415653,16332.486728726237,36363.918943872326,53075.69242426067,51458.20843675238,0.15,-0.03,1.016,192.0,0.0,0.0,0.0,0.0,0.0,0.0,0.0,0.0,0.0,0.49797773361206055,0.0
75.0,20022.178592941596,9927.840224247006,14398.837315897623,8304.209507013502,16326.18353678984,36353.61478967843,51928.37738136976,47520.680430016575,0.15,-0.03,1.016,192.0,0.0,0.0,0.0,0.0,0.0,0.0,0.0,0.0,0.0,0.4979887008666992,0.0
76.0,20013.617874815212,9922.744026511196,14402.65946419948,8301.057911045304,16321.109690798485,36352.72071990022,52311.64274354491,49883.70685383164,0.146,-0.026000000000000002,1.012,192.0,4.0,144.0,255.0,48.0,31.0,160.0,0.0,0.0,0.0,0.4979994297027588,0.0
77.0,20025.91133426563,9928.331962625023,14408.8508974136,8307.271696003878,16327.7034554128,36361.05792058205,53480.61662681301,54085.27601781798,0.146,-0.026000000000000002,1.012,192.0,0.0,0.0,0.0,0.0,0.0,0.0,0.0,0.0,0.0,0.49801039695739746,0.0
78.0,20036.237840203983,9934.925727239339,14403.687644444424,8312.79257688434,16333.492557226726,36361.14732755987,53271.49370568916,52246.62151892442,0.146,-0.026000000000000002,1.012,192.0,0.0,0.0,0.0,0.0,0.0,0.0,0.0,0.0,0.0,0.49802136421203613,0.0
79.0,20021.038653974374,9931.3941516154,14396.669196685458,8303.918934335583,16327.569344946069,36349.85969660994,52012.01760912152,47733.93842386466,0.146,-0.026000000000000002,1.012,192.0,0.0,0.0,0.0,0.0,0.0,0.0,0.0,0.0,0.0,0.4980340003967285,0.0
80.0,20028.16886045562,9929.091921936504,14398.636150197524,8301.057911045304,16323.501327455204,36340.427260449804,52130.012468101086,49009.91010784032,0.146,-0.026000000000000002,1.012,192.0,0.0,0.0,0.0,0.0,0.0,0.0,0.0,0.0,0.0,0.4980449676513672,0.0
81.0,20058.656639892655,9937.876157507439,14409.56615323617,8307.316399492789,16332.352618259505,36365.461214239745,53310.54220325258,53722.70837100844,0.146,-0.026000000000000002,1.012,192.0,0.0,0.0,0.0,0.0,0.0,0.0,0.0,0.0,0.0,0.49805617332458496,0.0
82.0,20048.955982799052,9944.089942466015,14412.51658350427,8319.632210687663,16343.32732478706,36372.01027536515,53422.211518551296,53131.8400063324,0.146,-0.026000000000000002,1.012,192.0,0.0,0.0,0.0,0.0,0.0,0.0,0.0,0.0,0.0,0.49806737899780273,0.0
83.0,20018.11057545073,9937.138549940413,14403.866458400067,8309.775091382873,16334.230164793751,36353.45832746725,52210.255230695635,48299.683427772936,0.146,-0.026000000000000002,1.012,192.0,0.0,0.0,0.0,0.0,0.0,0.0,0.0,0.0,0.0,0.4980785846710205,0.0
84.0,20033.846203547266,9933.249346405191,14408.023882868754,8303.069568046281,16326.80938563459,36362.77900490511,52043.22064438113,48390.67737945049,0.146,-0.026000000000000002,1.012,192.0,0.0,0.0,0.0,0.0,0.0,0.0,0.0,0.0,0.0,0.4980893135070801,0.0
85.0,20038.338904182783,9935.43981736181,14418.66331322948,8311.071492561281,16333.04552233762,36380.14631034688,53167.15576257179,53105.42024438623,0.14400000000000002,-0.024,1.012,192.0,4.0,128.0,255.0,64.0,31.0,160.0,0.0,0.0,0.0,0.49810218811035156,0.0
86.0,20022.133889452685,9940.558366842077,14415.399958539005,8317.084111819759,16340.7568741747,36374.42426376632,53641.035096768755,53791.35057823069,0.14400000000000002,-0.024,1.012,192.0,0.0,0.0,0.0,0.0,0.0,0.0,0.0,0.0,0.0,0.4981203079223633,0.0
87.0,20017.52943009489,9939.485483108221,14403.978217122343,8310.177422783068,16338.029961351152,36359.158022303345,52446.64728005497,49128.039077286616,0.14400000000000002,-0.024,1.012,192.0,0.0,0.0,0.0,0.0,0.0,0.0,0.0,0.0,0.0,0.4981355667114258,0.0
88.0,20064.91512834014,9940.91599475336,14408.783842180233,8306.042350058837,16333.649019437913,36362.600190949466,51950.17033221368,47935.28293791806,0.14400000000000002,-0.024,1.012,192.0,0.0,0.0,0.0,0.0,0.0,0.0,0.0,0.0,0.0,0.49814653396606445,0.0
89.0,20054.20864274605,9941.11716045346,14420.742025463824,8308.009303570903,16336.554746217102,36370.24448755318,52931.07663763483,52369.77963087316,0.14400000000000002,-0.024,1.012,192.0,0.0,0.0,0.0,0.0,0.0,0.0,0.0,0.0,0.0,0.4981577396392822,0.0
90.0,20040.81994781732,9944.87225352195,14420.13852836353,8316.927649608571,16344.37785677646,36367.60698170745,53685.559771723725,54239.61481328188,0.14400000000000002,-0.024,1.012,192.0,0.0,0.0,0.0,0.0,0.0,0.0,0.0,0.0,0.0,0.4981684684753418,0.0
91.0,20029.644075589666,9945.185177944324,14408.068586357664,8323.543765967343,16347.931784144854,36356.74403390218,52669.494172274375,49971.10217465189,0.14400000000000002,-0.024,1.012,192.0,0.0,0.0,0.0,0.0,0.0,0.0,0.0,0.0,0.0,0.4981820583343506,0.0
92.0,20019.876363262698,9938.30084065209,14409.23087706934,8309.529222193863,16339.840452652033,36365.461214239745,51914.6534102742,47622.91730915515,0.14400000000000002,-0.024,1.012,192.0,0.0,0.0,0.0,0.0,0.0,0.0,0.0,0.0,0.0,0.49819302558898926,0.0
93.0,20045.5808693863,9938.211433674269,14415.846993428111,8308.612800671197,16336.018304350175,36365.170641561825,52717.95275425348,51531.74567601034,0.14400000000000002,-0.024,1.012,192.0,0.0,0.0,0.0,0.0,0.0,0.0,0.0,0.0,0.0,0.49820399284362793,0.0
94.0,20060.534186426903,9945.051067477592,14420.026769641254,8317.531146708865,16344.891946898932,36373.15021433237,53635.357753677104,54519.74922654024,0.14400000000000002,-0.024,1.012,192.0,0.0,0.0,0.0,0.0,0.0,0.0,0.0,0.0,0.0,0.4982149600982666,0.0
95.0,20039.25532570545,9944.536977355121,14412.404824781994,8317.866422875693,16346.970659133276,36364.477737483714,52883.89210508968,50784.68332108061,0.15,-0.024,1.012,192.0,4.0,176.0,255.0,64.0,31.0,160.0,0.0,0.0,0.0,0.4982266426086426,0.0
96.0,20024.525526109403,9938.502006352188,14406.70512994589,8309.328056493767,16337.314705528583,36358.42041473632,51882.6457122142,47412.1403589416,0.15,-0.024,1.012,192.0,0.0,0.0,0.0,0.0,0.0,0.0,0.0,0.0,0.0,0.49823760986328125,0.0
97.0,20037.266020448926,9936.915032495861,14413.924743404956,8307.182289026057,16335.146586316418,36362.95781886075,52467.166181464934,50512.5731840817,0.15,-0.024,1.012,192.0,0.0,0.0,0.0,0.0,0.0,0.0,0.0,0.0,0.0,0.49825048446655273,0.0
98.0,20046.810215331345,9943.911128510372,14422.194888853419,8319.676914176574,16346.434217266347,36373.79841492158,53604.82527075116,54343.90805291034,0.15,-0.024,1.012,192.0,0.0,0.0,0.0,0.0,0.0,0.0,0.0,0.0,0.0,0.4982612133026123,0.0
99.0,20055.192119502084,9951.108390224981,14419.646789985514,8326.98593461346,16354.23497608125,36378.00054287917,53168.56392247247,51782.21932437651,0.15,-0.024,1.012,192.0,0.0,0.0,0.0,0.0,0.0,0.0,0.0,0.0,0.0,0.498272180557251,0.0
100.0,20054.8344915908,9947.845035534507,14412.583638737637,8319.07341707628,16348.110598100497,36367.405816007355,51981.172201773195,47652.175742647145,0.15,-0.024,1.012,192.0,0.0,0.0,0.0,0.0,0.0,0.0,0.0,0.0,0.0,0.49829840660095215,0.0
101.0,20050.051218277364,9940.87129126445,14417.23280158434,8309.909201849605,16340.578060219057,36369.663342197346,52304.51253706367,49724.67419203212,0.15,-0.024,1.012,192.0,0.0,0.0,0.0,0.0,0.0,0.0,0.0,0.0,0.0,0.4983100891113281,0.0
102.0,20043.949192041066,9941.228919175735,14422.485461531338,8313.016094328892,16342.679124197857,36375.69831320028,53477.30856863363,54108.14185239576,0.15,-0.024,1.012,192.0,0.0,0.0,0.0,0.0,0.0,0.0,0.0,0.0,0.0,0.4983208179473877,0.0
103.0,20039.72471233901,9943.195872687802,14415.824641683655,8316.324152508278,16345.361333532494,36369.663342197346,53366.71213706877,52653.691488944474,0.15,-0.024,1.012,192.0,0.0,0.0,0.0,0.0,0.0,0.0,0.0,0.0,0.0,0.4983336925506592,0.0
104.0,20041.982238528995,9943.44174187681,14406.883943901534,8316.88294611966,16342.165034075384,36359.76151940364,52120.17770054075,48060.81033477907,0.15,-0.024,1.012,192.0,0.0,0.0,0.0,0.0,0.0,0.0,0.0,0.0,0.0,0.49834465980529785,0.0
105.0,20021.284523163384,9937.20560517378,14411.8013276817,8308.903373349116,16334.18546130484,36364.56714446153,52121.0047150856,48933.57890052544,0.148,-0.026000000000000002,1.012,192.0,4.0,160.0,255.0,48.0,31.0,160.0,0.0,0.0,0.0,0.4983553886413574,0.0
106.0,20042.67514260711,9941.11716045346,14416.76341495078,8311.205603028013,16335.772435161167,36367.897554385374,53251.488894401664,53701.72008296491,0.148,-0.026000000000000002,1.012,192.0,0.0,0.0,0.0,0.0,0.0,0.0,0.0,0.0,0.0,0.4983663558959961,0.0
107.0,20038.651828605158,9945.609861088975,14415.019978883265,8318.715789164995,16342.924993386865,36356.31935075753,53481.264827402214,53392.640160636925,0.148,-0.026000000000000002,1.012,192.0,0.0,0.0,0.0,0.0,0.0,0.0,0.0,0.0,0.0,0.4983799457550049,0.0
108.0,20030.672255834612,9944.246404677202,14412.673045715457,8308.344579737734,16340.198080563317,36360.34266475948,52279.7915076961,48589.518498124904,0.148,-0.026000000000000002,1.012,192.0,0.0,0.0,0.0,0.0,0.0,0.0,0.0,0.0,0.0,0.49839043617248535,0.0
109.0,20026.33601741028,9939.574890086042,14417.009284139787,8308.523393693375,16336.465339239281,36366.89172588488,51998.11482407032,48251.49306672729,0.148,-0.026000000000000002,1.012,192.0,0.0,0.0,0.0,0.0,0.0,0.0,0.0,0.0,0.0,0.49840331077575684,0.0
110.0,20043.6809711076,9939.217262174758,14423.111310376085,8306.914068092594,16337.38176076195,36376.078292856015,53091.07042444592,52911.38475076971,0.148,-0.026000000000000002,1.012,192.0,0.0,0.0,0.0,0.0,0.0,0.0,0.0,0.0,0.0,0.4984145164489746,0.0
111.0,20042.608087373745,9942.212395931769,14420.026769641254,8306.757605881407,16341.159205574895,36377.57585973452,53676.19439079695,53985.58723754731,0.148,-0.026000000000000002,1.012,192.0,0.0,0.0,0.0,0.0,0.0,0.0,0.0,0.0,0.0,0.4984259605407715,0.0
112.0,20025.173726698606,9940.558366842077,14409.454394513894,8308.12106229318,16341.203909063806,36365.14828981737,52522.30793503618,49393.01900780428,0.148,-0.026000000000000002,1.012,192.0,0.0,0.0,0.0,0.0,0.0,0.0,0.0,0.0,0.0,0.49843716621398926,0.0
113.0,20026.29131392137,9933.91989873885,14409.14147009152,8299.649751144618,16331.65971418139,36358.599228691965,51917.93911670913,47797.75265428456,0.148,-0.026000000000000002,1.012,192.0,0.0,0.0,0.0,0.0,0.0,0.0,0.0,0.0,0.0,0.49844789505004883,0.0
114.0,20024.10084296475,9931.528262082133,14418.529202762747,8302.019036056881,16330.698589169811,36364.880068883904,52849.76099130643,52093.78029033903,0.148,-0.026000000000000002,1.012,192.0,0.0,0.0,0.0,0.0,0.0,0.0,0.0,0.0,0.0,0.4984588623046875,0.0
115.0,20010.756851524933,9938.032619718626,14424.005380154298,8312.636114673152,16341.85210965301,36377.08412135651,53680.08359433217,54322.4727299777,0.146,-0.024,1.012,192.0,4.0,144.0,255.0,64.0,31.0,160.0,0.0,0.0,0.0,0.4984719753265381,0.0
116.0,20017.48472660598,9941.653602320386,14412.449528270905,8314.088978062748,16343.595545720524,36364.34362701698,52749.602824402195,50257.29391065764,0.146,-0.024,1.012,192.0,0.0,0.0,0.0,0.0,0.0,0.0,0.0,0.0,0.0,0.49848270416259766,0.0
117.0,20028.928819767098,9934.702209794785,14405.878115401045,8308.12106229318,16332.7549496597,36349.14444078737,51874.39791851019,47535.969023224,0.146,-0.024,1.012,192.0,0.0,0.0,0.0,0.0,0.0,0.0,0.0,0.0,0.0,0.49849390983581543,0.0
118.0,20037.936572782586,9931.01417195966,14411.42134802596,8305.863536103194,16327.636400179435,36353.12305130041,52606.6187151216,51262.60832102398,0.146,-0.024,1.012,192.0,0.0,0.0,0.0,0.0,0.0,0.0,0.0,0.0,0.0,0.498504638671875,0.0
119.0,20045.06677926383,9940.848939519994,14424.653580743503,8312.993742584436,16340.913336385887,36381.308601058554,53598.11974741456,54511.45672934732,0.146,-0.024,1.012,192.0,0.0,0.0,0.0,0.0,0.0,0.0,0.0,0.0,0.0,0.49851560592651367,0.0
120.0,20041.49050015098,9946.347468656,14419.512679518783,8318.514623464898,16346.367162032982,36374.37956027741,52991.493402897526,51131.51533979361,0.146,-0.024,1.012,192.0,0.0,0.0,0.0,0.0,0.0,0.0,0.0,0.0,0.0,0.49852657318115234,0.0
121.0,20032.86272679123,9940.223090675247,14412.248362570806,8313.97721934047,16338.141720073429,36360.16385080384,51948.18102695716,47542.60749132723,0.146,-0.024,1.012,192.0,0.0,0.0,0.0,0.0,0.0,0.0,0.0,0.0,0.0,0.49853968620300293,0.0
122.0,20060.489482937992,9937.987916229715,14415.019978883265,8308.79161462684,16332.956115359799,36357.25812402464,52439.002983451246,50327.2772225472,0.146,-0.024,1.012,192.0,0.0,0.0,0.0,0.0,0.0,0.0,0.0,0.0,0.0,0.4985506534576416,0.0
123.0,20069.16195978665,9942.882948265427,14424.228897598852,8318.179347298068,16342.500310242214,36378.71579870174,53585.2004391194,54349.406582046344,0.146,-0.024,1.012,192.0,0.0,0.0,0.0,0.0,0.0,0.0,0.0,0.0,0.0,0.97678542137146,0.0
124.0,20048.240726976484,9946.056895978081,14422.127833620052,8323.320248522788,16350.770455690677,36381.956801647764,53258.3732316939,52119.373037740355,0.148,-0.03,1.008,192.0,4.0,160.0,255.0,16.0,31.0,128.0,0.0,0.0,0.0,0.9772202968597412,0.0
125.0,20035.09790123676,9942.927651754339,14413.075377115652,8323.07437933378,16348.088246356041,36366.46704274023,52009.08953059787,47764.49325853506,0.148,-0.03,1.008,192.0,0.0,0.0,0.0,0.0,0.0,0.0,0.0,0.0,0.0,0.9775428771972656,0.0
126.0,20033.66738959162,9939.329020897034,14420.742025463824,8319.721617665484,16345.450740510314,36378.06759811254,52220.58173663399,49454.6204155231,0.148,-0.03,1.008,192.0,0.0,0.0,0.0,0.0,0.0,0.0,0.0,0.0,0.0,0.9776225090026855,0.0
127.0,20036.930744282097,9941.385381386923,14431.917897691477,8324.639001445652,16349.786978934644,36391.99273490819,53409.71689340078,53973.45024030808,0.148,-0.03,1.008,192.0,0.0,0.0,0.0,0.0,0.0,0.0,0.0,0.0,0.0,0.977670431137085,0.0
128.0,20038.540069882878,9946.816855289562,14426.441720299927,8331.478635248975,16354.033810381152,36383.499072015176,53432.31450704509,52929.53436726742,0.148,-0.03,1.008,192.0,0.0,0.0,0.0,0.0,0.0,0.0,0.0,0.0,0.0,0.9777109622955322,0.0
129.0,20046.67610486461,9945.363991899967,14416.450490528405,8320.638039188152,16346.791845177633,36375.49714750018,52149.07850612146,48218.54659540017,0.148,-0.03,1.008,192.0,0.0,0.0,0.0,0.0,0.0,0.0,0.0,0.0,0.0,0.9777665138244629,0.0
130.0,20035.008494258942,9936.132721439924,14414.505888760792,8312.591411184241,16334.453682238303,36362.041397338086,52060.96792947864,48720.678534588646,0.148,-0.03,1.008,192.0,0.0,0.0,0.0,0.0,0.0,0.0,0.0,0.0,0.0,0.9778144359588623,0.0
131.0,20030.113462223228,9934.925727239339,14419.244458585317,8310.177422783068,16333.55961246009,36369.77510091962,53166.060527093476,53515.038313274184,0.148,-0.03,1.008,192.0,0.0,0.0,0.0,0.0,0.0,0.0,0.0,0.0,0.0,0.9778537750244141,0.0
132.0,20036.77428207091,9939.798407530596,14424.787691210235,8313.753701895917,16340.555708474603,36384.4378452823,53551.337546269606,53584.90986644148,0.148,-0.03,1.008,192.0,0.0,0.0,0.0,0.0,0.0,0.0,0.0,0.0,0.0,0.9778940677642822,0.0
133.0,20026.470127877015,9936.49034935121,14410.594333481115,8306.444681459032,16333.55961246009,36366.5340979736,52356.927377811364,48840.416829635724,0.148,-0.03,1.008,192.0,0.0,0.0,0.0,0.0,0.0,0.0,0.0,0.0,0.0,0.9779348373413086,0.0
134.0,20022.91620050862,9929.628363803431,14408.649731713502,8300.11913777818,16323.7024931553,36358.15219380286,51963.201399231126,48090.69461711581,0.14400000000000002,-0.028,1.006,192.0,4.0,128.0,255.0,32.0,31.0,112.0,0.0,0.0,0.0,0.977975606918335,0.0
135.0,20038.45066290506,9931.841186504505,14419.915010918978,8304.187155269046,16327.61404843498,36368.612810207946,52978.73055681355,52639.788703893275,0.14400000000000002,-0.028,1.006,192.0,0.0,0.0,0.0,0.0,0.0,0.0,0.0,0.0,0.0,0.9780149459838867,0.0
136.0,20031.946305268564,9936.199776673291,14419.400920796505,8312.054969317314,16333.939592115832,36372.01027536515,53658.38005046607,54106.73369249507,0.14400000000000002,-0.028,1.006,192.0,0.0,0.0,0.0,0.0,0.0,0.0,0.0,0.0,0.0,0.9780611991882324,0.0
137.0,19997.926950207588,9929.941288225806,14404.537010733726,8302.466070945988,16327.636400179435,36353.503030956155,52581.048319464724,49661.73167964598,0.14400000000000002,-0.028,1.006,192.0,0.0,0.0,0.0,0.0,0.0,0.0,0.0,0.0,0.0,0.9781012535095215,0.0
138.0,20041.423444917615,9925.381532356922,14401.117193832064,8291.334902207243,16317.309894241083,36344.696443640765,51897.71078797708,47698.935592047645,0.14400000000000002,-0.028,1.006,192.0,0.0,0.0,0.0,0.0,0.0,0.0,0.0,0.0,0.0,0.9781405925750732,0.0
139.0,20052.35344795626,9925.716808523752,14408.672083457957,8298.621570899675,16319.299199497606,36350.59730417697,52770.03231883435,51823.100664985264,0.14400000000000002,-0.028,1.006,192.0,0.0,0.0,0.0,0.0,0.0,0.0,0.0,0.0,0.0,0.9781801700592041,0.0
140.0,20019.96577024052,9928.890756236406,14409.901429403,8307.383454726154,16328.485766468737,36359.62740893691,53687.05733860223,54406.470585640745,0.14400000000000002,-0.028,1.006,192.0,0.0,0.0,0.0,0.0,0.0,0.0,0.0,0.0,0.0,0.9782195091247559,0.0
141.0,20017.507078350434,9929.941288225806,14404.961693878377,8302.041387801337,16327.010551334686,36355.40292923486,52836.10407544424,50561.724670138916,0.14400000000000002,-0.028,1.006,192.0,0.0,0.0,0.0,0.0,0.0,0.0,0.0,0.0,0.0,0.9782583713531494,0.0
142.0,20048.196023487573,9929.449549847788,14407.174516579453,8293.54772490832,16320.349731487006,36356.654626924355,51908.663142760175,47540.46172385952,0.14400000000000002,-0.028,1.006,192.0,0.0,0.0,0.0,0.0,0.0,0.0,0.0,0.0,0.0,0.9783058166503906,0.0
143.0,20051.928764811608,9930.611840559464,14411.846031170611,8297.727501121462,16319.388606475426,36356.654626924355,52538.53530151073,51027.400914120786,0.14400000000000002,-0.028,1.006,192.0,0.0,0.0,0.0,0.0,0.0,0.0,0.0,0.0,0.0,0.9783456325531006,0.0
144.0,20038.87534604971,9934.568099328053,14424.161842365485,8307.763434381895,16329.268077524672,36370.5350602311,53591.30246535569,54463.221664812765,0.14,-0.032,1.01,192.0,4.0,96.0,255.0,0.0,31.0,144.0,0.0,0.0,0.0,0.978386640548706,0.0
145.0,20039.43413966109,9937.809102274074,14416.249324828306,8309.551573938319,16334.967772360777,36365.86354563994,53083.80610749795,51448.887759314515,0.14,-0.032,1.01,192.0,0.0,0.0,0.0,0.0,0.0,0.0,0.0,0.0,0.0,0.9784276485443115,0.0
146.0,20030.314627923326,9932.06470394906,14408.560324735681,8304.723597135973,16328.23989727973,36353.45832746725,51961.05563176342,47584.20408775855,0.14,-0.032,1.01,192.0,0.0,0.0,0.0,0.0,0.0,0.0,0.0,0.0,0.0,0.9784672260284424,0.0
147.0,20015.83069751629,9924.643924789898,14412.605990482092,8300.566172667286,16323.657789666391,36356.74403390218,52362.515313925185,50034.46937018268,0.14,-0.032,1.01,192.0,0.0,0.0,0.0,0.0,0.0,0.0,0.0,0.0,0.0,0.9785251617431641,0.0
148.0,20031.20869770154,9929.4942533367,14421.144356864019,8307.40580647061,16331.32443801456,36371.49618524268,53521.408560443946,54241.24649062711,0.14,-0.032,1.01,192.0,0.0,0.0,0.0,0.0,0.0,0.0,0.0,0.0,0.0,0.9785716533660889,0.0
149.0,20041.401093173157,9935.640983061909,14415.265848072273,8312.300838506322,16339.41576950738,36369.037493352596,53294.67246468931,52369.89138959544,0.14,-0.032,1.01,192.0,0.0,0.0,0.0,0.0,0.0,0.0,0.0,0.0,0.0,0.9786112308502197,0.0
150.0,20037.467186149024,9933.383456871923,14406.772185179256,8309.305704749311,16335.370103760972,36358.57687694751,52062.44314461269,47907.14209164883,0.14,-0.032,1.01,192.0,0.0,0.0,0.0,0.0,0.0,0.0,0.0,0.0,0.0,0.978661060333252,0.0
151.0,20023.6761598201,9929.740122525707,14413.097728860108,8308.50104194892,16331.592658948024,36365.14828981737,52190.38452987487,49229.337183158066,0.14,-0.032,1.01,192.0,0.0,0.0,0.0,0.0,0.0,0.0,0.0,0.0,0.0,0.9787015914916992,0.0
152.0,20027.29714242186,9933.428160360832,14421.859612686589,8316.950001353027,16336.800615406111,36374.84894691097,53352.585834573016,53822.24068906793,0.14,-0.032,1.01,192.0,0.0,0.0,0.0,0.0,0.0,0.0,0.0,0.0,0.0,0.9787411689758301,0.0
153.0,20037.86951754922,9939.753704041685,14416.316380061673,8320.302763021322,16342.053275353108,36370.11037708645,53478.20263841184,53176.252922565094,0.14200000000000002,-0.032,1.01,192.0,4.0,112.0,255.0,0.0,31.0,144.0,0.0,0.0,0.0,0.97878098487854,0.0
154.0,20019.16110744013,9933.53991908311,14405.788708423222,8310.758568138906,16334.654847938402,36358.48746996969,52199.01230323462,48415.13018788459,0.14200000000000002,-0.032,1.01,192.0,0.0,0.0,0.0,0.0,0.0,0.0,0.0,0.0,0.0,0.9788293838500977,0.0
155.0,20028.01239824443,9927.639058546909,14407.196868323908,8306.60114367022,16326.362350745483,36360.499126970666,52001.40053050525,48542.62453825767,0.14200000000000002,-0.032,1.01,192.0,0.0,0.0,0.0,0.0,0.0,0.0,0.0,0.0,0.0,0.9788684844970703,0.0
156.0,20040.641133861678,9928.600183558487,14419.780900452246,8309.372759982678,16329.893926369421,36375.29598180008,53084.40960459824,53275.740537135665,0.14200000000000002,-0.032,1.01,192.0,0.0,0.0,0.0,0.0,0.0,0.0,0.0,0.0,0.0,0.9789085388183594,0.0
157.0,20044.284468207894,9934.612802816964,14420.317342319173,8319.565155454296,16340.198080563317,36374.334856788504,53613.408340621994,53780.30881646977,0.14200000000000002,-0.032,1.01,192.0,0.0,0.0,0.0,0.0,0.0,0.0,0.0,0.0,0.0,0.9789505004882812,0.0
158.0,20041.266982706427,9935.328058639534,14407.733310190835,8317.374684497678,16339.795749163122,36355.96172284624,52443.04864919766,49120.57359463854,0.14200000000000002,-0.032,1.01,192.0,0.0,0.0,0.0,0.0,0.0,0.0,0.0,0.0,0.0,0.9789907932281494,0.0
159.0,20037.981276271497,9930.455378348277,14410.460223014383,8312.524355950876,16332.397321748416,36358.599228691965,51945.05178273342,47961.7697550976,0.14200000000000002,-0.032,1.01,192.0,0.0,0.0,0.0,0.0,0.0,0.0,0.0,0.0,0.0,0.9790303707122803,0.0
160.0,20024.838450531777,9929.24838414769,14419.33386556314,8318.22405078698,16333.000818848708,36365.528269473114,52948.063963420864,52431.51514905872,0.14200000000000002,-0.032,1.01,192.0,0.0,0.0,0.0,0.0,0.0,0.0,0.0,0.0,0.0,0.9790778160095215,0.0
161.0,20010.555685824835,9931.260041148667,14421.479633030849,8320.705094421517,16336.398284005916,36372.725531187716,53698.85905967463,54260.893674003324,0.14200000000000002,-0.032,1.01,192.0,0.0,0.0,0.0,0.0,0.0,0.0,0.0,0.0,0.0,0.9791171550750732,0.0
162.0,20024.346712153758,9929.4942533367,14410.124946847553,8309.864498360694,16328.843394380021,36355.805260635054,52664.95676814995,49957.445258789696,0.14200000000000002,-0.032,1.01,192.0,0.0,0.0,0.0,0.0,0.0,0.0,0.0,0.0,0.0,0.9791567325592041,0.0
163.0,20034.427348903104,9922.20758464427,14404.380548522538,8296.229934242956,16316.41582446287,36344.85290585195,51886.35610179378,47627.90174816868,0.146,-0.034,1.012,192.0,4.0,144.0,254.0,240.0,31.0,160.0,0.0,0.0,0.0,0.979196310043335,0.0
164.0,20043.859785063243,9919.994761943193,14409.901429403,8295.984065053948,16314.739443628723,36350.26202801013,52701.032483700816,51551.75048729783,0.146,-0.034,1.012,192.0,0.0,0.0,0.0,0.0,0.0,0.0,0.0,0.0,0.0,0.9792370796203613,0.0
165.0,20046.29612520887,9925.4932910792,14413.880039916045,8306.757605881407,16323.143699543918,36359.26978102562,53671.85815237262,54449.60945243949,0.146,-0.034,1.012,192.0,0.0,0.0,0.0,0.0,0.0,0.0,0.0,0.0,0.0,0.9792759418487549,0.0
166.0,20038.87534604971,9929.650715547887,14406.571019479159,8310.93738209455,16328.798690891112,36350.26202801013,52909.01546585745,50869.44113605513,0.146,-0.034,1.012,192.0,0.0,0.0,0.0,0.0,0.0,0.0,0.0,0.0,0.0,0.979323148727417,0.0
167.0,20026.224258688006,9924.845090489995,14401.720690932358,8302.376663968165,16321.668484409867,36344.85290585195,51905.176270625154,47550.85528503123,0.146,-0.034,1.012,192.0,0.0,0.0,0.0,0.0,0.0,0.0,0.0,0.0,0.0,0.9793620109558105,0.0
168.0,20002.754927009933,9920.285334621112,14408.582676480137,8303.091919790735,16318.47218495276,36352.519554200124,52446.66963179942,50764.6338063042,0.146,-0.034,1.012,192.0,0.0,0.0,0.0,0.0,0.0,0.0,0.0,0.0,0.0,0.9794013500213623,0.0
169.0,19992.651938516134,9924.398055600888,14421.434929541938,8312.45730071751,16330.385664747439,36371.272667798126,53568.88366566702,54393.50657385666,0.146,-0.034,1.012,192.0,0.0,0.0,0.0,0.0,0.0,0.0,0.0,0.0,0.0,0.9794411659240723,0.0
170.0,20037.95892452704,9930.63419230392,14408.672083457957,8310.333884994256,16331.726769414756,36359.11331881444,53169.18977131722,51781.705234254034,0.146,-0.034,1.012,192.0,0.0,0.0,0.0,0.0,0.0,0.0,0.0,0.0,0.0,0.979494571685791,0.0
171.0,20055.527395668913,9927.77316901364,14397.965597863866,8304.678893647062,16325.915315856377,36345.90343784135,51983.876762852284,47676.56149584788,0.146,-0.034,1.012,192.0,0.0,0.0,0.0,0.0,0.0,0.0,0.0,0.0,0.0,0.9795427322387695,0.0
172.0,20052.509910167446,9924.040427689604,14407.442737512916,8305.707073892007,16323.926010599855,36356.028778079606,52295.63889451491,49768.64007337571,0.146,-0.034,1.012,192.0,0.0,0.0,0.0,0.0,0.0,0.0,0.0,0.0,0.0,0.9795889854431152,0.0
173.0,20046.340828697783,9927.77316901364,14417.590429495625,8310.847975116727,16333.112577570986,36375.36303703344,53476.43685059987,54135.38862888678,0.146,-0.032,1.014,192.0,4.0,144.0,255.0,0.0,31.0,176.0,0.0,0.0,0.0,0.979628324508667,0.0
174.0,20032.929782024596,9933.338753383012,14414.28237131624,8318.112292064701,16343.260269553695,36376.88295565641,53362.644119577904,52647.34359351917,0.146,-0.032,1.014,192.0,0.0,0.0,0.0,0.0,0.0,0.0,0.0,0.0,0.0,0.9796698093414307,0.0
175.0,20026.15720345464,9931.595317315498,14404.559362478181,8318.089940320247,16340.153377074406,36361.52730721561,52094.60730488388,48041.07374442503,0.146,-0.032,1.014,192.0,0.0,0.0,0.0,0.0,0.0,0.0,0.0,0.0,0.0,0.9797089099884033,0.0
176.0,20023.162069697628,9927.996686458193,14409.096766602608,8311.384416983654,16334.856013638499,36359.62740893691,52143.17764558526,48989.59237213044,0.146,-0.032,1.014,192.0,0.0,0.0,0.0,0.0,0.0,0.0,0.0,0.0,0.0,0.9797489643096924,0.0
177.0,20022.33505515278,9931.215337659758,14417.679836473446,8318.671085676086,16341.248612552718,36370.71387418674,53326.769569727134,53674.87563787409,0.146,-0.032,1.014,192.0,0.0,0.0,0.0,0.0,0.0,0.0,0.0,0.0,0.0,0.9798445701599121,0.0
178.0,20015.517773093914,9936.847977262494,14415.51171726128,8325.175443312579,16349.608164979001,36376.48062425621,53565.88853191001,53433.16387333439,0.146,-0.032,1.014,192.0,0.0,0.0,0.0,0.0,0.0,0.0,0.0,0.0,0.0,0.9798920154571533,0.0
179.0,20026.894811021666,9938.345544141,14408.672083457957,8324.08020783427,16349.496406256725,36368.746920674675,52289.98390316772,48646.76131567494,0.146,-0.032,1.014,192.0,0.0,0.0,0.0,0.0,0.0,0.0,0.0,0.0,0.0,0.9799320697784424,0.0
180.0,20023.743215053466,9931.081227193026,14405.498135745303,8315.385379241156,16338.56640321808,36356.74403390218,51993.77858564599,48419.64524026457,0.146,-0.032,1.014,192.0,0.0,0.0,0.0,0.0,0.0,0.0,0.0,0.0,0.0,0.979971170425415,0.0
181.0,20040.417616417126,9931.707076037774,14416.897525417511,8320.414521743598,16342.299144542116,36366.91407762934,53039.05791509842,53007.25138273852,0.146,-0.032,1.014,192.0,0.0,0.0,0.0,0.0,0.0,0.0,0.0,0.0,0.0,0.9800102710723877,0.0
182.0,20049.626535132713,9935.305706895078,14417.344560306617,8329.55638522582,16347.864728911487,36377.19588007878,53630.261555941295,53920.476605949,0.146,-0.032,1.014,192.0,0.0,0.0,0.0,0.0,0.0,0.0,0.0,0.0,0.0,0.9800493717193604,0.0
183.0,20037.690703593576,9931.751779526685,14404.984045622832,8324.259021789912,16341.829757908556,36357.59340019148,52511.57909769763,49365.861638291084,0.152,-0.032,1.012,192.0,4.0,192.0,255.0,0.0,31.0,160.0,0.0,0.0,0.0,0.980088472366333,0.0
184.0,20033.086244235783,9928.510776580666,14405.498135745303,8316.704132164017,16335.347752016516,36358.465118225235,51948.65041359072,47845.58538741891,0.152,-0.032,1.012,192.0,0.0,0.0,0.0,0.0,0.0,0.0,0.0,0.0,0.0,0.9801361560821533,0.0
185.0,20024.570229598314,9930.187157414814,14415.846993428111,8323.40965550061,16339.482824740748,36364.79066190609,52893.74922439447,52170.02209067608,0.152,-0.032,1.012,192.0,0.0,0.0,0.0,0.0,0.0,0.0,0.0,0.0,0.0,0.980175256729126,0.0
186.0,20032.25922969094,9935.573927828542,14418.976237651854,8321.93444036656,16345.070760854574,36371.22796430921,53711.5772022697,54347.439628534274,0.152,-0.032,1.012,192.0,0.0,0.0,0.0,0.0,0.0,0.0,0.0,0.0,0.0,0.980215311050415,0.0
187.0,20023.609104586736,9933.986953972215,14410.527278247748,8316.07828331927,16342.679124197857,36358.532173458596,52771.86516187968,50261.42898338187,0.152,-0.032,1.012,192.0,0.0,0.0,0.0,0.0,0.0,0.0,0.0,0.0,0.0,0.9802560806274414,0.0
188.0,20037.176613471107,9930.29891613709,14406.772185179256,8313.083149562259,16334.006647349197,36352.78777513358,51906.67383750366,47579.465517934026,0.152,-0.032,1.012,192.0,0.0,0.0,0.0,0.0,0.0,0.0,0.0,0.0,0.0,0.9802956581115723,0.0
189.0,20049.023038032417,9927.3931893579,14414.260019571784,8314.93834435205,16331.100920570008,36363.650722938866,52652.88682614408,51266.832800726035,0.152,-0.032,1.012,192.0,0.0,0.0,0.0,0.0,0.0,0.0,0.0,0.0,0.0,0.9803357124328613,0.0
190.0,20038.741235582977,9930.164805670358,14419.222106840863,8316.033579830359,16336.063007839086,36371.876164898415,53670.740565149856,54459.868903144474,0.152,-0.032,1.012,192.0,0.0,0.0,0.0,0.0,0.0,0.0,0.0,0.0,0.0,0.9803867340087891,0.0
191.0,20038.00362801595,9936.423294117843,14412.13660384853,8319.051065331825,16341.09215034153,36361.66141768234,53006.20085074912,51163.724203553706,0.152,-0.032,1.012,192.0,0.0,0.0,0.0,0.0,0.0,0.0,0.0,0.0,0.0,0.9804258346557617,0.0
192.0,20038.182441971596,9933.58462257202,14404.76052817828,8314.513661207398,16334.543089216126,36353.72654840071,51906.40561657019,47564.713366593525,0.15,-0.032,1.014,192.0,4.0,176.0,255.0,0.0,31.0,176.0,0.0,0.0,0.0,0.9804651737213135,0.0
193.0,20042.004590273453,9927.840224247006,14407.912124146478,8311.719693150484,16329.581001947046,36348.98797857618,52362.29179648063,50433.716229643374,0.15,-0.032,1.014,192.0,0.0,0.0,0.0,0.0,0.0,0.0,0.0,0.0,0.0,0.9805276393890381,0.0
194.0,20044.865613563732,9931.528262082133,14420.429101041449,8317.68760892005,16340.42159800787,36365.23769679519,53543.62619443252,54278.90918003431,0.15,-0.032,1.014,192.0,0.0,0.0,0.0,0.0,0.0,0.0,0.0,0.0,0.0,0.9805705547332764,0.0
195.0,20020.68102606309,9935.082189450526,14423.178365609452,8317.374684497678,16344.914298643387,36382.26972607014,53229.69594355774,52026.121559872816,0.15,-0.032,1.014,192.0,0.0,0.0,0.0,0.0,0.0,0.0,0.0,0.0,0.0,0.9806101322174072,0.0
196.0,20013.036729459374,9929.606012058975,14412.985970137832,8310.847975116727,16336.532394472648,36368.36694101893,52014.18572833368,47734.69838317614,0.15,-0.032,1.014,192.0,0.0,0.0,0.0,0.0,0.0,0.0,0.0,0.0,0.0,0.9806580543518066,0.0
197.0,20046.139662997684,9926.72263702424,14415.288199816729,8312.479652461965,16329.402187991403,36362.95781886075,52247.85086486946,49481.64367456957,0.15,-0.032,1.014,192.0,0.0,0.0,0.0,0.0,0.0,0.0,0.0,0.0,0.0,0.9806976318359375,0.0
198.0,20038.093034993773,9926.990857957704,14422.217240597874,8314.983047840959,16331.391493247927,36368.612810207946,53432.985059378756,53980.53574330041,0.15,-0.032,1.014,192.0,0.0,0.0,0.0,0.0,0.0,0.0,0.0,0.0,0.0,0.9807369709014893,0.0
199.0,20037.288372193383,9931.72942778223,14417.299856817706,8318.40286474262,16336.398284005916,36364.969475861726,53448.117190375,52890.84349761528,0.15,-0.032,1.014,192.0,0.0,0.0,0.0,0.0,0.0,0.0,0.0,0.0,0.0,0.9807760715484619,0.0
200.0,20026.29131392137,9932.355276626979,14407.62155146856,8319.296934520833,16336.13006307245,36353.10069955596,52142.08241010695,48164.52242905169,0.15,-0.032,1.014,192.0,0.0,0.0,0.0,0.0,0.0,0.0,0.0,0.0,0.0,0.9808158874511719,0.0
201.0,20019.854011518244,9927.415541102355,14411.019016625765,8314.915992607594,16332.263211281683,36352.8324786225,52053.100115430374,48682.61351378125,0.15,-0.032,1.014,192.0,0.0,0.0,0.0,0.0,0.0,0.0,0.0,0.0,0.0,0.9808557033538818,0.0
202.0,20031.476918635002,9930.745951026196,14422.753682464801,8316.011228085903,16336.890022383932,36370.557411975555,53218.45301609672,53395.88116358294,0.146,-0.03,1.008,192.0,4.0,144.0,255.0,16.0,31.0,128.0,0.0,0.0,0.0,0.9809036254882812,0.0
203.0,20041.35638968425,9935.529224339632,14420.250287085806,8317.486443219954,16340.689818941335,36373.284324799104,53576.483258781824,53565.48620050981,0.146,-0.03,1.008,192.0,0.0,0.0,0.0,0.0,0.0,0.0,0.0,0.0,0.0,0.980942964553833,0.0
204.0,20029.800537800853,9934.210471416769,14409.208525324884,8313.820757129282,16337.784092162145,36357.63810368039,52342.01876425967,48813.70649501163,0.146,-0.03,1.008,192.0,0.0,0.0,0.0,0.0,0.0,0.0,0.0,0.0,0.0,0.9809839725494385,0.0
205.0,20023.497345864456,9928.309610880568,14408.13564159103,8311.339713494745,16330.206850791796,36351.893705355375,51919.39198009873,48196.35131315605,0.146,-0.03,1.008,192.0,0.0,0.0,0.0,0.0,0.0,0.0,0.0,0.0,0.0,0.9810240268707275,0.0
206.0,20008.544028823857,9926.588526557509,14423.200717353908,8315.206565285513,16335.66067643889,36371.33972303149,52970.48276310954,52656.82073316821,0.146,-0.03,1.008,192.0,0.0,0.0,0.0,0.0,0.0,0.0,0.0,0.0,0.0,0.9810628890991211,0.0
207.0,20024.212601687028,9931.818834760052,14420.429101041449,8316.324152508278,16339.32636252956,36372.233792809704,53671.5675796947,54043.902938831205,0.146,-0.03,1.008,192.0,0.0,0.0,0.0,0.0,0.0,0.0,0.0,0.0,0.0,0.9811015129089355,0.0
208.0,20033.10859598024,9933.361105127467,14410.683740458935,8311.585582683752,16339.23695555174,36361.415548493336,52556.21553137488,49561.104126108185,0.146,-0.03,1.008,192.0,0.0,0.0,0.0,0.0,0.0,0.0,0.0,0.0,0.0,0.9811475276947021,0.0
209.0,20036.39430241517,9928.823701003039,14411.309589303684,8306.422329714576,16331.972638603764,36360.700292670765,51875.6943196886,47644.66555651016,0.146,-0.03,1.008,192.0,0.0,0.0,0.0,0.0,0.0,0.0,0.0,0.0,0.0,0.9811863899230957,0.0
210.0,20038.651828605158,9928.399017858388,14421.300819075206,8310.3115332498,16332.084397326042,36370.11037708645,52771.976920601955,51809.466100867525,0.146,-0.03,1.008,192.0,0.0,0.0,0.0,0.0,0.0,0.0,0.0,0.0,0.0,0.9812257289886475,0.0
211.0,20031.096938979263,9934.992782472704,14425.257077843795,8318.894603120638,16344.310801543093,36379.363999290945,53680.57533271019,54349.71950646872,0.146,-0.03,1.008,192.0,0.0,0.0,0.0,0.0,0.0,0.0,0.0,0.0,0.0,0.981264591217041,0.0
212.0,20034.047369247364,9938.144378440902,14416.808118439689,8317.195870542035,16346.210699821795,36368.09872008547,52808.38791231965,50468.249674826824,0.14200000000000002,-0.03,1.006,192.0,4.0,112.0,255.0,16.0,31.0,112.0,0.0,0.0,0.0,0.9813034534454346,0.0
213.0,20028.705302322545,9934.29987839459,14411.913086403978,8309.953905338514,16338.253478795707,36358.35335950296,51878.15301157868,47477.049824839814,0.14200000000000002,-0.03,1.006,192.0,0.0,0.0,0.0,0.0,0.0,0.0,0.0,0.0,0.0,0.9813425540924072,0.0
214.0,20029.040578489374,9931.930593482328,14418.976237651854,8307.65167565962,16334.833661894043,36361.92963861581,52559.90356921001,50926.102808249336,0.14200000000000002,-0.03,1.006,192.0,0.0,0.0,0.0,0.0,0.0,0.0,0.0,0.0,0.0,0.9814009666442871,0.0
215.0,20011.4721073475,9932.757608027174,14425.27942958825,8309.663332660595,16339.572231718568,36380.50393825817,53613.94478248892,54383.82826850752,0.14200000000000002,-0.03,1.006,192.0,0.0,0.0,0.0,0.0,0.0,0.0,0.0,0.0,0.0,0.9814400672912598,0.0
216.0,19985.544083779347,9929.896584736895,14415.131737605541,8306.623495414675,16338.409941006894,36369.39512126388,53063.153095621245,51401.055026180155,0.14200000000000002,-0.03,1.006,192.0,0.0,0.0,0.0,0.0,0.0,0.0,0.0,0.0,0.0,0.9814949035644531,0.0
217.0,20040.81994781732,9930.075398692537,14404.648769456002,8303.561306424297,16330.050388580608,36351.49137395518,51930.79136977093,47620.10098935378,0.14200000000000002,-0.03,1.006,192.0,0.0,0.0,0.0,0.0,0.0,0.0,0.0,0.0,0.0,0.9815337657928467,0.0
218.0,20050.095921766275,9926.789692257607,14412.784804437733,8305.640018658642,16327.815214135077,36355.20176353476,52308.91583072136,50087.68887373077,0.14200000000000002,-0.03,1.006,192.0,0.0,0.0,0.0,0.0,0.0,0.0,0.0,0.0,0.0,0.9815733432769775,0.0
219.0,20043.256287962948,9933.137587682913,14424.228897598852,8318.671085676086,16338.61110670699,36377.10647310096,53519.19573774287,54168.536265914,0.14200000000000002,-0.03,1.006,192.0,0.0,0.0,0.0,0.0,0.0,0.0,0.0,0.0,0.0,0.9816145896911621,0.0
220.0,20026.11249996573,9938.658468563375,14418.842127185122,8323.186138056057,16344.579022476557,36372.367903276434,53285.06121457353,52260.81487665354,0.14200000000000002,-0.03,1.006,192.0,0.0,0.0,0.0,0.0,0.0,0.0,0.0,0.0,0.0,0.9816617965698242,0.0
221.0,20024.279656920393,9936.713866795762,14410.124946847553,8313.418425729087,16338.90167938491,36360.230906037206,52038.0350396675,47804.05584622095,0.14200000000000002,-0.03,1.012,192.0,4.0,112.0,255.0,16.0,31.0,160.0,0.0,0.0,0.0,0.9817013740539551,0.0
222.0,20043.39039842968,9935.886852250916,14414.774109694257,8315.944172852538,16338.409941006894,36364.20951655025,52177.554628557526,49186.891220437436,0.14200000000000002,-0.03,1.012,192.0,0.0,0.0,0.0,0.0,0.0,0.0,0.0,0.0,0.0,0.9817399978637695,0.0
223.0,20040.35056118376,9937.473826107243,14427.38049356705,8314.513661207398,16342.343848031027,36380.16866209134,53371.383651659926,53799.710130656975,0.14200000000000002,-0.03,1.012,192.0,0.0,0.0,0.0,0.0,0.0,0.0,0.0,0.0,0.0,0.9817841053009033,0.0
224.0,20022.87149701971,9941.58654708702,14422.865441187078,8328.327039280777,16350.479883012758,36378.89461265739,53483.790574525665,53096.12191869282,0.14200000000000002,-0.03,1.012,192.0,0.0,0.0,0.0,0.0,0.0,0.0,0.0,0.0,0.0,0.9818260669708252,0.0
225.0,19996.988176940464,9937.697343551796,14413.164784093475,8324.974277612482,16347.015362622185,36369.77510091962,52197.09005321146,48334.485093889845,0.14200000000000002,-0.03,1.012,192.0,0.0,0.0,0.0,0.0,0.0,0.0,0.0,0.0,0.0,0.9818665981292725,0.0
226.0,20021.262171418926,9933.763436527663,14415.221144583362,8315.02775132987,16337.001781106208,36367.1822985628,52036.02338266652,48485.87345908564,0.14200000000000002,-0.03,1.012,192.0,0.0,0.0,0.0,0.0,0.0,0.0,0.0,0.0,0.0,0.9819135665893555,0.0
227.0,20061.897642838674,9936.624459817942,14425.346484821617,8314.044274573836,16335.839490394532,36372.6361242099,53172.18490507423,53191.988550661634,0.14200000000000002,-0.03,1.012,192.0,0.0,0.0,0.0,0.0,0.0,0.0,0.0,0.0,0.0,0.9820148944854736,0.0
228.0,20052.465206678535,9941.810064531574,14424.161842365485,8320.012190343403,16342.388551519938,36373.30667654356,53639.068143256685,53759.789915059795,0.14200000000000002,-0.03,1.012,192.0,0.0,0.0,0.0,0.0,0.0,0.0,0.0,0.0,0.0,0.9820561408996582,0.0
229.0,20025.82192728781,9939.887814508416,14407.956827635388,8323.476710733976,16340.7568741747,36349.41266172083,52420.071055897606,49065.05186141156,0.14200000000000002,-0.03,1.012,192.0,0.0,0.0,0.0,0.0,0.0,0.0,0.0,0.0,0.0,0.9820959568023682,0.0
230.0,20012.321473636803,9934.568099328053,14409.610856725081,8318.000533342425,16336.465339239281,36360.834403137495,51884.36679653726,48032.133046642906,0.14200000000000002,-0.03,1.012,192.0,0.0,0.0,0.0,0.0,0.0,0.0,0.0,0.0,0.0,0.9821910858154297,0.0
231.0,20039.92587803911,9937.004439473681,14424.608877254592,8314.714826907495,16337.024132850664,36372.300848043065,52923.03000963092,52376.32869199857,0.138,-0.03,1.012,192.0,4.0,80.0,255.0,16.0,31.0,160.0,0.0,0.0,0.0,0.9822309017181396,0.0
232.0,20066.92678534112,9947.666221578864,14426.911106933489,8323.767283411895,16346.031885866152,36378.96166789075,53690.030120614785,54164.91528331224,0.138,-0.03,1.012,192.0,0.0,0.0,0.0,0.0,0.0,0.0,0.0,0.0,0.0,0.9822781085968018,0.0
233.0,20054.92389856862,9947.219186689757,14415.891696917022,8319.587507198752,16344.802539921111,36361.99669384917,52654.76437267833,49851.90032147173,0.138,-0.03,1.012,192.0,0.0,0.0,0.0,0.0,0.0,0.0,0.0,0.0,0.0,0.9823169708251953,0.0
234.0,20020.412805129625,9937.719695296251,14412.605990482092,8314.446605974032,16337.113539828486,36357.973379847215,51903.34342757981,47593.92709659661,0.138,-0.03,1.012,192.0,0.0,0.0,0.0,0.0,0.0,0.0,0.0,0.0,0.0,0.9823572635650635,0.0
235.0,20030.091110478774,9934.813968517063,14423.781862709746,8312.010265828403,16333.447853737815,36366.020007851126,52711.85072801718,51540.038173203255,0.138,-0.03,1.012,192.0,0.0,0.0,0.0,0.0,0.0,0.0,0.0,0.0,0.0,0.9824061393737793,0.0
236.0,20047.279601964903,9940.267794164158,14429.079226145654,8312.636114673152,16339.527528229659,36374.826595166516,53674.495658218344,54388.633893565406,0.138,-0.03,1.012,192.0,0.0,0.0,0.0,0.0,0.0,0.0,0.0,0.0,0.0,0.982445240020752,0.0
237.0,20037.95892452704,9941.363029642467,14416.271676572762,8312.591411184241,16341.89681314192,36359.82857463701,52887.71425339154,50743.489056049475,0.138,-0.03,1.012,192.0,0.0,0.0,0.0,0.0,0.0,0.0,0.0,0.0,0.0,0.9824848175048828,0.0
238.0,20031.767491312923,9935.77509352864,14412.8518596711,8303.628361657664,16332.84435663752,36360.499126970666,51893.48630827502,47458.76609787537,0.138,-0.03,1.012,192.0,0.0,0.0,0.0,0.0,0.0,0.0,0.0,0.0,0.0,0.9825425148010254,0.0
239.0,20028.81706104482,9931.617669059953,14421.27846733075,8303.31543723529,16327.859917623988,36364.56714446153,52488.44504218639,50619.66039176707,0.138,-0.03,1.012,192.0,0.0,0.0,0.0,0.0,0.0,0.0,0.0,0.0,0.0,0.982581615447998,0.0
240.0,20032.169822713116,9936.356238884478,14430.085054646142,8310.579754183264,16336.644153194924,36382.29207781459,53594.2975991127,54347.79725644556,0.138,-0.03,1.012,192.0,0.0,0.0,0.0,0.0,0.0,0.0,0.0,0.0,0.0,0.9826204776763916,0.0
241.0,20035.053197747853,9939.552538341588,14422.440758042427,8312.07732106177,16340.443949752325,36373.6866561993,53133.44933193318,51678.37311963715,0.134,-0.024,1.012,192.0,4.0,48.0,255.0,64.0,31.0,160.0,0.0,0.0,0.0,0.9826607704162598,0.0
242.0,20014.511944593425,9933.897546994394,14411.577810237148,8308.210469271002,16333.492557226726,36361.23673453769,51925.20343365711,47701.57309789337,0.134,-0.024,1.012,192.0,0.0,0.0,0.0,0.0,0.0,0.0,0.0,0.0,0.0,0.9826998710632324,0.0
243.0,20010.086299191273,9927.974334713737,14419.691493474424,8304.142451780135,16330.720940914267,36362.734301416196,52259.36201326395,49767.7460035975,0.134,-0.024,1.012,192.0,0.0,0.0,0.0,0.0,0.0,0.0,0.0,0.0,0.0,1.4560596942901611,0.0
244.0,20025.73252030999,9934.72456153924,14428.229859856352,8310.669161161084,16336.778263661656,36375.29598180008,53492.44069962987,54094.79786095594,0.134,-0.024,1.012,192.0,0.0,0.0,0.0,0.0,0.0,0.0,0.0,0.0,0.0,1.4567453861236572,0.0
245.0,20042.20575597355,9942.368858142956,14425.547650521714,8318.000533342425,16344.981353876754,36376.25710681166,53380.45845990878,52569.60422630361,0.134,-0.024,1.012,192.0,0.0,0.0,0.0,0.0,0.0,0.0,0.0,0.0,0.0,1.456791877746582,0.0
246.0,20043.815081574332,9939.507834852677,14416.606952739592,8313.574887940274,16340.198080563317,36366.31058052905,52110.67820914724,47987.96599959922,0.134,-0.024,1.012,192.0,0.0,0.0,0.0,0.0,0.0,0.0,0.0,0.0,0.0,1.456836462020874,0.0
247.0,20041.44579666207,9934.97043072825,14420.607914997092,8314.3124955073,16334.945420616321,36370.065673597535,52145.54693049752,48984.51852613909,0.134,-0.024,1.012,192.0,0.0,0.0,0.0,0.0,0.0,0.0,0.0,0.0,0.0,1.456881046295166,0.0
248.0,20050.699418866567,9939.083151708026,14428.453377300904,8319.878079876671,16340.399246263416,36379.43105452431,53312.84443293148,53652.05450678522,0.134,-0.024,1.012,192.0,0.0,0.0,0.0,0.0,0.0,0.0,0.0,0.0,0.0,1.4569206237792969,0.0
249.0,20045.469110664024,9945.92278551135,14425.055912143698,8325.93540262406,16348.132949844952,36377.59821147897,53529.723409381324,53341.052334434076,0.134,-0.024,1.012,192.0,0.0,0.0,0.0,0.0,0.0,0.0,0.0,0.0,0.0,1.4569611549377441,0.0
250.0,20048.799520587865,9946.548634356099,14416.606952739592,8325.041332845847,16345.920127143876,36369.55158347506,52255.204588795255,48556.32615760877,0.134,-0.024,1.012,192.0,0.0,0.0,0.0,0.0,0.0,0.0,0.0,0.0,0.0,1.4570097923278809,0.0
251.0,20051.481729922503,9941.452436620288,14418.976237651854,8320.749797910428,16339.035789851641,36370.89268814238,51992.88451586777,48321.52108210577,0.14,-0.022,1.012,192.0,4.0,96.0,255.0,80.0,31.0,160.0,0.0,0.0,0.0,1.4570496082305908,0.0
252.0,20049.246555476973,9939.977221486239,14427.358141822595,8322.046199088836,16340.645115452424,36378.96166789075,53097.194802426675,52998.08716751185,0.14,-0.022,1.012,192.0,0.0,0.0,0.0,0.0,0.0,0.0,0.0,0.0,0.0,1.457089900970459,0.0
253.0,20039.188270472085,9943.240576176713,14426.218202855374,8327.164748569101,16348.021191122674,36381.24154582519,53644.43256192596,53947.25399580646,0.14,-0.022,1.012,192.0,0.0,0.0,0.0,0.0,0.0,0.0,0.0,0.0,0.0,1.457129716873169,0.0
254.0,20021.53039235239,9942.25709942068,14414.103557360597,8328.148225325134,16346.993010877732,36366.3329322735,52491.931914321416,49408.285249267254,0.14,-0.022,1.012,192.0,0.0,0.0,0.0,0.0,0.0,0.0,0.0,0.0,0.0,1.4572157859802246,0.0
255.0,20025.06196797633,9937.049142962593,14413.9023916605,8320.950963610527,16338.968734618276,36361.01321709314,51903.902221191194,47974.21967675921,0.14,-0.022,1.012,192.0,0.0,0.0,0.0,0.0,0.0,0.0,0.0,0.0,0.0,1.4572560787200928,0.0
0.0,20041.982238528995,9935.261003406167,14422.261944086784,8311.607934428208,16334.498385727215,36369.216307308234,52905.640352444694,52219.1735767333,0.14,-0.022,1.012,192.0,0.0,0.0,0.0,0.0,0.0,0.0,0.0,0.0,0.0,1.4573075771331787,0.0
1.0,20064.132817284208,9943.68761106582,14427.13462437804,8316.16769029709,16340.823929408067,36380.59334523599,53749.97749924392,54397.015797736145,0.14,-0.022,1.012,192.0,0.0,0.0,0.0,0.0,0.0,0.0,0.0,0.0,0.0,1.4573602676391602,0.0
2.0,20046.29612520887,9946.548634356099,14419.467976029871,8315.45243447452,16342.321496286571,36369.640990452885,52768.8029728893,50249.023765209175,0.14,-0.022,1.012,192.0,0.0,0.0,0.0,0.0,0.0,0.0,0.0,0.0,0.0,1.4573993682861328,0.0
3.0,20025.509002865434,9940.714829053262,14415.467013772372,8305.438852958543,16333.961943860288,36361.66141768234,51927.9079947362,47650.208789135075,0.14,-0.022,1.012,192.0,0.0,0.0,0.0,0.0,0.0,0.0,0.0,0.0,0.0,1.4574401378631592,0.0
4.0,20036.751930326456,9940.245442419702,14424.318304576673,8305.818832614283,16333.447853737815,36366.377635762416,52666.72255596192,51365.471049007305,0.14400000000000002,-0.03,1.012,192.0,4.0,128.0,255.0,16.0,31.0,160.0,0.0,0.0,0.0,1.4574790000915527,0.0
5.0,20032.080415735294,9946.615689589464,14430.62149651307,8316.54766995283,16344.847243410022,36381.2862493141,53700.647199231054,54535.03781974767,0.14400000000000002,-0.03,1.012,192.0,0.0,0.0,0.0,0.0,0.0,0.0,0.0,0.0,0.0,1.4575181007385254,0.0
6.0,20031.63338084619,9948.381477401434,14420.652618486003,8319.855728132216,16346.56832773308,36367.60698170745,53022.58467943486,51186.97001778722,0.14400000000000002,-0.03,1.012,192.0,0.0,0.0,0.0,0.0,0.0,0.0,0.0,0.0,0.0,1.4575810432434082,0.0
7.0,20032.505098879945,9945.431047133332,14416.47284227286,8315.586544941252,16341.650943952913,36365.64002819539,51973.416146447205,47642.0951058978,0.14400000000000002,-0.03,1.012,192.0,0.0,0.0,0.0,0.0,0.0,0.0,0.0,0.0,0.0,1.45762038230896,0.0
8.0,20046.139662997684,9943.039410476615,14425.748816221812,8313.530184451363,16339.885156140943,36375.25127831117,52484.06410027315,50506.89584099005,0.14400000000000002,-0.03,1.012,192.0,0.0,0.0,0.0,0.0,0.0,0.0,0.0,0.0,0.0,1.4576616287231445,0.0
9.0,20061.83058760531,9950.080209980037,14435.47182505987,8325.622478201685,16350.8598626685,36387.92471741733,53605.18289866244,54451.66581292937,0.14400000000000002,-0.03,1.012,192.0,0.0,0.0,0.0,0.0,0.0,0.0,0.0,0.0,0.0,1.4577012062072754,0.0
10.0,20055.25917473545,9955.914015282871,14429.19098486793,8333.467940505498,16358.414752294393,36385.041342382596,53230.29944065803,52123.46340697568,0.14400000000000002,-0.03,1.012,192.0,0.0,0.0,0.0,0.0,0.0,0.0,0.0,0.0,0.0,1.457740306854248,0.0
11.0,20038.316552438326,9950.460189635776,14416.76341495078,8327.656486947119,16352.111560357996,36372.81493816554,51981.6192366623,47951.10797299242,0.14400000000000002,-0.03,1.012,192.0,0.0,0.0,0.0,0.0,0.0,0.0,0.0,0.0,0.0,1.4577977657318115,0.0
12.0,20022.558572597336,9944.20170118829,14422.977199909354,8327.254155546923,16349.608164979001,36377.95583939026,52248.34260324748,49608.378065631165,0.14400000000000002,-0.03,1.012,192.0,0.0,0.0,0.0,0.0,0.0,0.0,0.0,0.0,0.0,1.4578449726104736,0.0
13.0,20034.360293669735,9949.700230324297,14432.163766880485,8327.634135202663,16355.620784237479,36391.880976185916,53466.937359206364,54096.071910389895,0.14400000000000002,-0.03,1.012,192.0,0.0,0.0,0.0,0.0,0.0,0.0,0.0,0.0,0.0,1.4578840732574463,0.0
14.0,20060.78005561591,9957.16571297237,14427.626362756058,8339.368801041699,16362.795694207633,36390.897499429884,53467.719670262304,52958.3010623814,0.14400000000000002,-0.032,1.018,192.0,4.0,128.0,255.0,0.0,31.0,208.0,0.0,0.0,0.0,1.457923412322998,0.0
15.0,20062.88111959471,9956.11518098297,14423.267772587273,8343.146245854647,16361.074609884574,36387.70119997278,52169.12802089787,48258.73503193081,0.14400000000000002,-0.032,1.018,192.0,0.0,0.0,0.0,0.0,0.0,0.0,0.0,0.0,0.0,1.4579637050628662,0.0
16.0,20064.848073106776,9948.269718679157,14425.81587145518,8332.193891071545,16351.03867662414,36387.1871098503,52115.01444757157,48868.937655560694,0.14400000000000002,-0.032,1.018,192.0,0.0,0.0,0.0,0.0,0.0,0.0,0.0,0.0,0.0,1.4580035209655762,0.0
17.0,20061.472959694023,9946.772151800651,14434.041313414731,8335.345487039744,16351.619821979979,36395.524310532135,53269.92908357729,53573.46577328036,0.14400000000000002,-0.032,1.018,192.0,0.0,0.0,0.0,0.0,0.0,0.0,0.0,0.0,0.0,1.4580426216125488,0.0
18.0,20048.5312996544,9949.834340791029,14431.76143548029,8339.972298141993,16356.04546738213,36390.830444196516,53597.76211950328,53666.94076859245,0.14400000000000002,-0.032,1.018,192.0,0.0,0.0,0.0,0.0,0.0,0.0,0.0,0.0,0.0,1.4580905437469482,0.0
19.0,20037.62364836021,9948.068552979059,14418.193926595919,8332.663277705107,16351.105731857508,36369.439824752786,52354.24516847672,48901.88412688782,0.14400000000000002,-0.032,1.018,192.0,0.0,0.0,0.0,0.0,0.0,0.0,0.0,0.0,0.0,1.4581298828125,0.0
20.0,20028.258267433437,9944.246404677202,14421.323170819662,8326.27067879089,16343.908470142898,36377.03941786759,51991.029321077986,48257.103354585575,0.14400000000000002,-0.032,1.018,192.0,0.0,0.0,0.0,0.0,0.0,0.0,0.0,0.0,0.0,1.4581689834594727,0.0
21.0,20036.617819859723,9945.073419222048,14434.510700048293,8319.498100220932,16340.578060219057,36388.30469707307,53041.56131047742,52842.98841273647,0.14400000000000002,-0.032,1.018,192.0,0.0,0.0,0.0,0.0,0.0,0.0,0.0,0.0,0.0,1.45820951461792,0.0
22.0,20052.465206678535,9953.276509437146,14435.605935526602,8325.287202034855,16347.708266700301,36388.28234532861,53688.89018164756,54183.71310039915,0.14400000000000002,-0.032,1.018,192.0,0.0,0.0,0.0,0.0,0.0,0.0,0.0,0.0,0.0,1.4582583904266357,0.0
23.0,20050.408846188646,9955.534035627132,14422.954848164898,8322.02384734438,16347.820025422578,36375.586554477995,52551.767534228275,49770.40586118768,0.14400000000000002,-0.032,1.018,192.0,0.0,0.0,0.0,0.0,0.0,0.0,0.0,0.0,0.0,1.4582979679107666,0.0
24.0,20048.30778220985,9950.102561724492,14424.675932487957,8317.329981008766,16343.729656187255,36373.39608352138,51870.48636323051,47831.72730585663,0.14400000000000002,-0.034,1.012,192.0,4.0,128.0,254.0,240.0,31.0,160.0,0.0,0.0,0.0,1.4583444595336914,0.0
25.0,20036.662523348634,9945.006363988681,14430.263868601784,8315.094806563236,16340.823929408067,36378.71579870174,52825.64345903915,51975.80778310392,0.14400000000000002,-0.034,1.012,192.0,0.0,0.0,0.0,0.0,0.0,0.0,0.0,0.0,0.0,1.458383321762085,0.0
26.0,20058.92486082612,9949.566119857565,14430.867365702077,8318.849899631727,16345.786016677144,36382.806167937066,53716.96397268343,54465.97092938077,0.14400000000000002,-0.034,1.012,192.0,0.0,0.0,0.0,0.0,0.0,0.0,0.0,0.0,0.0,1.4584224224090576,0.0
27.0,20058.96956431503,9950.527244869143,14420.004417896798,8321.2638880329,16347.350638789016,36372.74788293218,52829.443255596554,50548.09010602118,0.14400000000000002,-0.034,1.012,192.0,0.0,0.0,0.0,0.0,0.0,0.0,0.0,0.0,0.0,1.4584617614746094,0.0
28.0,20047.570174642824,9946.794503545107,14418.395092296016,8317.17351879758,16343.528490487159,36376.77119693413,51910.87596546125,47611.87554739422,0.14400000000000002,-0.034,1.012,192.0,0.0,0.0,0.0,0.0,0.0,0.0,0.0,0.0,0.0,1.4585576057434082,0.0
29.0,20040.976410028507,9944.089942466015,14427.782824967246,8315.608896685708,16343.506138742703,36383.3873132929,52602.6177528641,51098.74768242213,0.14400000000000002,-0.034,1.012,192.0,0.0,0.0,0.0,0.0,0.0,0.0,0.0,0.0,0.0,1.458597183227539,0.0
30.0,20044.731503097,9949.946099513305,14436.18708088244,8323.700228178528,16352.826816180566,36397.4912640442,53661.442239456446,54522.69965680834,0.14400000000000002,-0.034,1.012,192.0,0.0,0.0,0.0,0.0,0.0,0.0,0.0,0.0,0.0,1.4586443901062012,0.0
31.0,20042.92101179612,9954.729372826741,14427.469900544871,8329.84695790374,16359.197063350328,36389.66815348484,53075.088927160374,51465.62921591154,0.14400000000000002,-0.034,1.012,192.0,0.0,0.0,0.0,0.0,0.0,0.0,0.0,0.0,0.0,1.458683967590332,0.0
32.0,20023.653808075644,9949.2978989241,14422.306647575695,8326.047161346336,16353.43031328086,36382.7391127037,51957.97109102859,47647.01248967797,0.14400000000000002,-0.034,1.012,192.0,0.0,0.0,0.0,0.0,0.0,0.0,0.0,0.0,0.0,1.458723545074463,0.0
33.0,20016.657712061133,9943.240576176713,14429.61566801258,8320.772149654884,16347.75297018921,36386.40479879437,52393.40542476242,50201.50395649719,0.14400000000000002,-0.034,1.012,192.0,0.0,0.0,0.0,0.0,0.0,0.0,0.0,0.0,0.0,1.4587657451629639,0.0
34.0,20047.771340342922,9950.460189635776,14436.723522749367,8328.707018936519,16354.279679570162,36397.91594718885,53564.92740689843,54363.21996011972,0.14200000000000002,-0.03,1.008,192.0,4.0,112.0,255.0,16.0,31.0,128.0,0.0,0.0,0.0,1.4588050842285156,0.0
35.0,20045.849090319763,9954.036468748625,14429.660371501492,8331.992725371449,16358.414752294393,36391.612755252456,53307.636476473395,52437.21484389483,0.14200000000000002,-0.03,1.008,192.0,0.0,0.0,0.0,0.0,0.0,0.0,0.0,0.0,0.0,1.4588444232940674,0.0
36.0,20036.327247181805,9949.230843690735,14422.038426642232,8325.689533435052,16353.653830725412,36380.570993491536,52017.98552489108,48031.6860117538,0.14200000000000002,-0.03,1.008,192.0,0.0,0.0,0.0,0.0,0.0,0.0,0.0,0.0,0.0,1.4588909149169922,0.0
37.0,20046.854918820252,9944.20170118829,14425.301781332706,8321.30859152181,16348.177653333862,36381.35330454747,52198.297047412045,49329.24948087329,0.14200000000000002,-0.03,1.008,192.0,0.0,0.0,0.0,0.0,0.0,0.0,0.0,0.0,0.0,1.458930253982544,0.0
38.0,20054.789788101887,9946.414523889367,14433.348409336617,8322.269716533388,16350.368124290482,36389.60109825148,53402.832556108544,53943.2306818045,0.14200000000000002,-0.03,1.008,192.0,0.0,0.0,0.0,0.0,0.0,0.0,0.0,0.0,0.0,1.4589707851409912,0.0
39.0,20051.369971200227,9950.571948358054,14432.543746536227,8324.84016714575,16356.29133657114,36393.80322620907,53493.938266508376,53168.295701539006,0.14200000000000002,-0.03,1.008,192.0,0.0,0.0,0.0,0.0,0.0,0.0,0.0,0.0,0.0,1.4590108394622803,0.0
40.0,20024.614933087225,9943.709962810275,14419.646789985514,8320.123949065679,16350.390476034938,36378.58168823501,52232.65167863986,48440.14178993009,0.14200000000000002,-0.03,1.008,192.0,0.0,0.0,0.0,0.0,0.0,0.0,0.0,0.0,0.0,1.459050178527832,0.0
41.0,20020.703377807546,9940.468959864254,14424.653580743503,8314.3124955073,16344.355505032005,36382.18031909232,52091.478060660134,48673.471650299034,0.14200000000000002,-0.03,1.008,192.0,0.0,0.0,0.0,0.0,0.0,0.0,0.0,0.0,0.0,1.4590888023376465,0.0
42.0,20046.117311253227,9949.275547179646,14439.316325106183,8321.375646755178,16350.837510924044,36390.29400232959,53208.95352470321,53368.27675918064,0.14200000000000002,-0.03,1.008,192.0,0.0,0.0,0.0,0.0,0.0,0.0,0.0,0.0,0.0,1.459134817123413,0.0
43.0,20039.25532570545,9954.796428060106,14439.003400683809,8323.119082822692,16355.352563304015,36396.12780763242,53639.403419423514,53858.51757031889,0.148,-0.028,1.014,192.0,4.0,160.0,255.0,32.0,31.0,176.0,0.0,0.0,0.0,1.4591832160949707,0.0
44.0,20025.419595887615,9949.2978989241,14422.843089442622,8316.704132164017,16348.021191122674,36375.83242366701,52413.45493953883,49123.92635630684,0.148,-0.028,1.014,192.0,0.0,0.0,0.0,0.0,0.0,0.0,0.0,0.0,0.0,1.4592225551605225,0.0
45.0,20039.523546638913,9942.860596520972,14420.697321974912,8304.276562246867,16336.577097961557,36369.10454858596,51969.75046035653,48107.79370162412,0.148,-0.028,1.014,192.0,0.0,0.0,0.0,0.0,0.0,0.0,0.0,0.0,0.0,1.459261417388916,0.0
46.0,20047.145491498173,9941.698305809297,14428.609839512092,8304.857707602705,16335.23599329424,36378.045246368085,52997.34955994482,52624.254241496834,0.148,-0.028,1.014,192.0,0.0,0.0,0.0,0.0,0.0,0.0,0.0,0.0,0.0,1.4593005180358887,0.0
47.0,20033.66738959162,9947.3980006454,14431.269697102272,8314.02192282938,16343.684952698346,36392.28330758611,53718.34978083966,54333.08980859397,0.148,-0.028,1.014,192.0,0.0,0.0,0.0,0.0,0.0,0.0,0.0,0.0,0.0,1.4593396186828613,0.0
48.0,20034.67321809211,9946.883910522927,14420.898487675011,8311.764396639395,16341.38272301945,36374.737188188694,52620.43209319498,50062.74432691865,0.148,-0.028,1.014,192.0,0.0,0.0,0.0,0.0,0.0,0.0,0.0,0.0,0.0,1.4593884944915771,0.0
49.0,20057.06966603633,9945.20752968878,14421.479633030849,8309.551573938319,16337.515871228681,36370.17743231981,51872.00628185347,47699.427330425664,0.148,-0.028,1.014,192.0,0.0,0.0,0.0,0.0,0.0,0.0,0.0,0.0,0.0,1.4594275951385498,0.0
50.0,20061.338849227293,9946.414523889367,14430.040351157231,8314.804233885317,16339.773397418667,36383.074388870526,52735.4988736509,51685.05629122929,0.148,-0.028,1.014,192.0,0.0,0.0,0.0,0.0,0.0,0.0,0.0,0.0,0.0,1.4594669342041016,0.0
51.0,20052.39815144517,9954.192930959813,14438.913993705988,8327.321210780288,16354.123217358974,36400.10641814547,53704.558754510734,54507.50047057873,0.148,-0.028,1.014,192.0,0.0,0.0,0.0,0.0,0.0,0.0,0.0,0.0,0.0,1.459505558013916,0.0
52.0,19999.40216534164,9951.913053025371,14429.816833712679,8326.941231124549,16354.927880159365,36388.10353137297,52902.19818379858,50829.4985687135,0.148,-0.028,1.014,192.0,0.0,0.0,0.0,0.0,0.0,0.0,0.0,0.0,0.0,1.4595592021942139,0.0
53.0,20014.288427148873,9947.44270413431,14421.591391753125,8318.335809509255,16345.338981788038,36371.898516642876,51913.84874747381,47594.50824195245,0.148,-0.026000000000000002,1.012,192.0,4.0,160.0,255.0,48.0,31.0,160.0,0.0,0.0,0.0,1.4595987796783447,0.0
54.0,20089.077364096327,9949.677878579841,14428.922763934466,8317.061760075303,16342.768531175678,36375.92183064483,52543.92207192446,50832.94073735962,0.148,-0.026000000000000002,1.012,192.0,0.0,0.0,0.0,0.0,0.0,0.0,0.0,0.0,0.0,1.4596447944641113,0.0
55.0,20085.814009405854,9953.947061770805,14440.053932673209,8328.4164462586,16351.95509814681,36395.926641932325,53631.62501235307,54495.29641810613,0.148,-0.026000000000000002,1.012,192.0,0.0,0.0,0.0,0.0,0.0,0.0,0.0,0.0,0.0,1.4596843719482422,0.0
56.0,20063.998706817474,9954.885835037927,14431.202641868907,8330.562213726309,16355.643135981934,36386.76242670565,53151.53189319753,51748.28937629335,0.148,-0.026000000000000002,1.012,192.0,0.0,0.0,0.0,0.0,0.0,0.0,0.0,0.0,0.0,1.4597241878509521,0.0
57.0,20043.613915874233,9947.263890178669,14422.105481875597,8324.996629356936,16347.417694022382,36373.977228877215,51996.773719403,47714.85003409982,0.148,-0.026000000000000002,1.012,192.0,0.0,0.0,0.0,0.0,0.0,0.0,0.0,0.0,0.0,1.459775447845459,0.0
58.0,20025.956037754542,9940.40190463089,14428.676894745458,8321.353295010722,16343.461435253792,36383.45436852627,52343.65044160491,49934.31120327845,0.148,-0.026000000000000002,1.012,192.0,0.0,0.0,0.0,0.0,0.0,0.0,0.0,0.0,0.0,1.4598171710968018,0.0
59.0,20024.994912742965,9942.950003498794,14440.746836751323,8324.12491132318,16349.71992370128,36405.44848507029,53516.62528713051,54249.76250526458,0.148,-0.026000000000000002,1.012,192.0,0.0,0.0,0.0,0.0,0.0,0.0,0.0,0.0,0.0,1.4598562717437744,0.0
60.0,20048.665410121135,9950.996631502705,14435.918859948977,8325.689533435052,16356.425447037871,36403.45917981377,53341.45466583427,52702.86532674615,0.148,-0.026000000000000002,1.012,192.0,0.0,0.0,0.0,0.0,0.0,0.0,0.0,0.0,0.0,1.4599025249481201,0.0
61.0,20071.620651676734,9952.740067570217,14431.76143548029,8328.818777658795,16357.207758093806,36391.23277559671,52061.61613006784,48080.03283501063,0.148,-0.026000000000000002,1.012,192.0,0.0,0.0,0.0,0.0,0.0,0.0,0.0,0.0,0.0,1.4599413871765137,0.0
62.0,20065.809198118353,9946.034544233626,14433.035484914242,8317.799367642328,16347.484749255747,36390.45046454078,52160.053212649014,49067.80112597956,0.148,-0.026000000000000002,1.012,192.0,0.0,0.0,0.0,0.0,0.0,0.0,0.0,0.0,0.0,1.4599804878234863,0.0
63.0,20049.31361071034,9944.82755003304,14440.90329896251,8315.698303663528,16347.060066111097,36398.69825824479,53329.63059301741,53728.743342011374,0.15,-0.026000000000000002,1.008,192.0,4.0,176.0,255.0,48.0,31.0,128.0,0.0,0.0,0.0,1.460019588470459,0.0
64.0,20036.43900590408,9948.91791926836,14440.031580928753,8322.850861889227,16352.893871413931,36399.61467976745,53534.10435129456,53341.27585187863,0.15,-0.026000000000000002,1.008,192.0,0.0,0.0,0.0,0.0,0.0,0.0,0.0,0.0,0.0,1.4600584506988525,0.0
65.0,20048.26307872094,9948.672050079353,14426.352313322106,8320.705094421517,16349.71992370128,36379.81103418005,52266.82749591202,48567.211457158504,0.15,-0.026000000000000002,1.008,192.0,0.0,0.0,0.0,0.0,0.0,0.0,0.0,0.0,0.0,1.460106372833252,0.0
66.0,20043.703322852056,9943.262927921169,14428.073397645165,8315.005399585414,16342.097978842019,36379.94514464679,52025.04867613896,48409.18462385948,0.15,-0.026000000000000002,1.008,192.0,0.0,0.0,0.0,0.0,0.0,0.0,0.0,0.0,0.0,1.4601562023162842,0.0
67.0,20023.564401097825,9941.899471509394,14435.605935526602,8319.520451965387,16344.690781198835,36382.24737432568,53136.220948245646,53099.47468036112,0.15,-0.026000000000000002,1.008,192.0,0.0,0.0,0.0,0.0,0.0,0.0,0.0,0.0,0.0,1.460195779800415,0.0
68.0,20038.182441971596,9949.029677990637,14435.740045993334,8323.476710733976,16352.335077802549,36390.897499429884,53650.64634688453,53952.10432435326,0.15,-0.026000000000000002,1.008,192.0,0.0,0.0,0.0,0.0,0.0,0.0,0.0,0.0,0.0,1.4602365493774414,0.0
69.0,20059.81893060433,9952.248329192202,14427.402845311504,8324.326077023277,16351.485711513247,36383.29790631508,52472.03886175619,49292.70437868886,0.15,-0.026000000000000002,1.008,192.0,0.0,0.0,0.0,0.0,0.0,0.0,0.0,0.0,0.0,1.4602758884429932,0.0
70.0,20031.163994212628,9945.25223317769,14428.252211600806,8320.213356043501,16343.707304442802,36383.02968538162,51936.40165762921,47908.594955038425,0.15,-0.026000000000000002,1.008,192.0,0.0,0.0,0.0,0.0,0.0,0.0,0.0,0.0,0.0,1.460315465927124,0.0
71.0,20022.893848764164,9942.033581976126,14435.47182505987,8320.369818254689,16342.165034075384,36387.9917726507,52885.74729987947,52277.6904437173,0.15,-0.026000000000000002,1.008,192.0,0.0,0.0,0.0,0.0,0.0,0.0,0.0,0.0,0.0,1.4603548049926758,0.0
72.0,20082.03656459291,9950.169616957857,14435.114197148587,8323.007324100414,16345.964830632787,36389.82461569603,53685.44801300145,54371.9818439462,0.146,-0.03,1.004,192.0,4.0,144.0,255.0,16.0,31.0,96.0,0.0,0.0,0.0,1.4604010581970215,0.0
73.0,20061.942346327585,9948.40382914589,14424.720635976868,8320.772149654884,16345.718961443778,36375.027760866615,52654.876131400604,50234.85275922451,0.146,-0.03,1.004,192.0,0.0,0.0,0.0,0.0,0.0,0.0,0.0,0.0,0.0,1.4604401588439941,0.0
74.0,20032.7286163245,9937.876157507439,14420.987894652832,8311.45147221702,16335.258345038696,36371.80910966505,51860.092802058796,47548.06131697432,0.146,-0.03,1.004,192.0,0.0,0.0,0.0,0.0,0.0,0.0,0.0,0.0,0.0,1.4604790210723877,0.0
75.0,20059.39424745968,9935.752741784185,14426.911106933489,8307.942248337538,16329.111615313484,36377.15117658987,52662.2298553264,51369.71788045381,0.146,-0.03,1.004,192.0,0.0,0.0,0.0,0.0,0.0,0.0,0.0,0.0,0.0,1.4605193138122559,0.0
76.0,20069.094904553283,9940.021924975148,14431.962601180388,8314.960696096503,16335.593621205524,36385.75659820516,53675.72500416339,54471.69297596133,0.146,-0.03,1.004,192.0,0.0,0.0,0.0,0.0,0.0,0.0,0.0,0.0,0.0,1.4605584144592285,0.0
77.0,20050.833529333297,9939.329020897034,14421.434929541938,8316.994704841936,16336.979429361754,36371.317371287034,52973.41084163319,51055.40764992328,0.146,-0.03,1.004,192.0,0.0,0.0,0.0,0.0,0.0,0.0,0.0,0.0,0.0,1.4605979919433594,0.0
78.0,20040.127043739205,9933.2940498941,14416.47284227286,8307.919896593083,16329.75981590269,36368.881031141405,51925.96339296859,47548.8212762858,0.146,-0.03,1.004,192.0,0.0,0.0,0.0,0.0,0.0,0.0,0.0,0.0,0.0,1.4606451988220215,0.0
79.0,20034.449700647558,9929.740122525707,14426.642886000025,8313.329018751267,16329.871574624965,36377.57585973452,52458.00196623826,50486.019311668795,0.146,-0.03,1.004,192.0,0.0,0.0,0.0,0.0,0.0,0.0,0.0,0.0,0.0,1.4606845378875732,0.0
80.0,20033.44387214707,9935.618631317453,14436.634115771547,8324.661353190108,16340.466301496781,36391.99273490819,53585.93804668642,54385.079966197016,0.146,-0.03,1.004,192.0,0.0,0.0,0.0,0.0,0.0,0.0,0.0,0.0,0.0,1.460723876953125,0.0
81.0,20022.558572597336,9938.613765074464,14431.13558663554,8327.3659142692,16344.064932354086,36383.72258945973,53219.14592017483,51980.412242461716,0.146,-0.03,1.004,192.0,0.0,0.0,0.0,0.0,0.0,0.0,0.0,0.0,0.0,1.4608185291290283,0.0
82.0,20021.5750958413,9934.925727239339,14424.653580743503,8318.782844398362,16336.66650493938,36373.641952710386,52014.61041147833,47750.29990080594,0.148,-0.03,1.01,192.0,4.0,160.0,255.0,16.0,31.0,144.0,0.0,0.0,0.0,1.4608581066131592,0.0
83.0,20017.86470626172,9929.717770781252,14431.38145582455,8312.79257688434,16331.570307203569,36379.83338592451,52263.49708598818,49628.5616908743,0.148,-0.03,1.01,192.0,0.0,0.0,0.0,0.0,0.0,0.0,0.0,0.0,0.0,1.4608969688415527,0.0
84.0,20049.760645599443,9935.417465617355,14439.539842550737,8318.939306609549,16338.007609606697,36390.94220291879,53453.77218172219,54098.24002960206,0.148,-0.03,1.01,192.0,0.0,0.0,0.0,0.0,0.0,0.0,0.0,0.0,0.0,1.4609439373016357,0.0
85.0,20050.431197933103,9939.329020897034,14432.610801769591,8317.486443219954,16338.208775306795,36381.465063269745,53391.20964899178,52954.456562335086,0.148,-0.03,1.01,192.0,0.0,0.0,0.0,0.0,0.0,0.0,0.0,0.0,0.0,1.4609827995300293,0.0
86.0,20047.033732775897,9935.43981736181,14427.291086589228,8307.897544848627,16331.883231625943,36367.204650307256,52111.70638939219,48148.83150444407,0.148,-0.03,1.01,192.0,0.0,0.0,0.0,0.0,0.0,0.0,0.0,0.0,0.0,1.461052417755127,0.0
87.0,20037.10955823774,9927.169671913347,14425.19002261043,8295.939361565037,16319.925048342355,36365.036531095095,52112.734569637134,48829.375067874804,0.148,-0.03,1.01,192.0,0.0,0.0,0.0,0.0,0.0,0.0,0.0,0.0,0.0,1.461092472076416,0.0
88.0,20039.8811745502,9928.376666113934,14431.068531402176,8298.643922644129,16320.528545442647,36366.5340979736,53287.005816341145,53548.72239216833,0.148,-0.03,1.01,192.0,0.0,0.0,0.0,0.0,0.0,0.0,0.0,0.0,0.0,1.4611327648162842,0.0
89.0,20038.67418034961,9935.819797017552,14432.14141513603,8302.019036056881,16328.217545535274,36377.061769612046,53593.828212479144,53548.47652297933,0.148,-0.03,1.01,192.0,0.0,0.0,0.0,0.0,0.0,0.0,0.0,0.0,0.0,1.4611716270446777,0.0
90.0,20011.91914223661,9931.304744637579,14419.110348118586,8296.162879009591,16321.243801265216,36362.39902524937,52322.72920879474,48759.30234900741,0.148,-0.03,1.01,192.0,0.0,0.0,0.0,0.0,0.0,0.0,0.0,0.0,0.0,1.4612176418304443,0.0
91.0,20000.609159542222,9922.453453833277,14416.115214361575,8284.696434104018,16310.090280782018,36354.46415596773,51990.96226584462,48227.48729318229,0.148,-0.03,1.01,192.0,0.0,0.0,0.0,0.0,0.0,0.0,0.0,0.0,0.0,1.461256980895996,0.0
92.0,20037.53424138239,9925.135663167914,14424.363008065584,8288.764451594883,16312.61602790547,36356.073481568514,53051.73135420458,52843.927186003595,0.14200000000000002,-0.03,1.014,192.0,4.0,112.0,255.0,16.0,31.0,176.0,0.0,0.0,0.0,1.4612956047058105,0.0
93.0,20046.45258742006,9930.902413237383,14424.228897598852,8297.124004021169,16320.930876842844,36360.409719992844,53672.77457389529,54081.54327649395,0.14200000000000002,-0.03,1.014,192.0,0.0,0.0,0.0,0.0,0.0,0.0,0.0,0.0,0.0,1.461336374282837,0.0
94.0,20034.78497681439,9931.237689404214,14415.891696917022,8300.49911743392,16322.093167554518,36355.5817431905,52553.13099064005,49544.899111378094,0.14200000000000002,-0.03,1.014,192.0,0.0,0.0,0.0,0.0,0.0,0.0,0.0,0.0,0.0,1.4613754749298096,0.0
95.0,20026.24661043246,9925.627401545931,14415.735234705835,8294.128870264158,16315.342940729017,36351.401966977355,51923.30353537841,47793.662285049235,0.14200000000000002,-0.03,1.014,192.0,0.0,0.0,0.0,0.0,0.0,0.0,0.0,0.0,0.0,1.4614145755767822,0.0
96.0,20019.4740318625,9923.615744544953,14426.486423788838,8297.436928443543,16317.667522152367,36361.72847291571,52824.10118867173,52014.11867310032,0.14200000000000002,-0.03,1.014,192.0,0.0,0.0,0.0,0.0,0.0,0.0,0.0,0.0,0.0,1.461460828781128,0.0
97.0,20035.008494258942,9931.930593482328,14428.833356956644,8309.775091382873,16327.390530990426,36370.28919104209,53670.98643433886,54464.24984505771,0.14200000000000002,-0.03,1.014,192.0,0.0,0.0,0.0,0.0,0.0,0.0,0.0,0.0,0.0,1.4615001678466797,0.0
98.0,20023.81027028683,9933.53991908311,14421.300819075206,8312.189079784046,16333.157281059895,36361.72847291571,52738.51635915237,50460.359509034104,0.14200000000000002,-0.03,1.014,192.0,0.0,0.0,0.0,0.0,0.0,0.0,0.0,0.0,0.0,1.461554765701294,0.0
99.0,19992.473124560493,9927.3931893579,14421.457281286393,8306.958771581503,16328.195193790818,36369.05984509705,51898.49309903301,47524.63668878516,0.14200000000000002,-0.03,1.014,192.0,0.0,0.0,0.0,0.0,0.0,0.0,0.0,0.0,0.0,1.4616062641143799,0.0
100.0,20003.04549968785,9926.163843412858,14431.247345357819,8306.712902392495,16327.077606568053,36376.4359207673,52609.88206981207,51105.72142669218,0.14200000000000002,-0.03,1.014,192.0,0.0,0.0,0.0,0.0,0.0,0.0,0.0,0.0,0.0,1.461613416671753,0.0
101.0,20059.036619548395,9938.166730185358,14438.71282800589,8314.826585629771,16338.298182284616,36389.73520871821,53683.034024600274,54496.48106056226,0.14200000000000002,-0.03,1.014,192.0,0.0,0.0,0.0,0.0,0.0,0.0,0.0,0.0,0.0,1.461620569229126,0.0
102.0,20059.036619548395,9942.458265120777,14431.493214546826,8321.465053732998,16344.422560265371,36382.582650492506,53067.66814800121,51362.78883967267,0.14200000000000002,-0.026000000000000002,1.014,192.0,4.0,112.0,255.0,48.0,31.0,176.0,0.0,0.0,0.0,1.4616293907165527,0.0
103.0,20046.989029286986,9938.72552379674,14425.726464477357,8318.22405078698,16339.549879974114,36376.34651378948,51978.48999243856,47624.92896615613,0.14200000000000002,-0.026000000000000002,1.014,192.0,0.0,0.0,0.0,0.0,0.0,0.0,0.0,0.0,0.0,1.4616365432739258,0.0
104.0,20041.378741428704,9934.903375494883,14435.248307615318,8313.373722240178,16337.493519484226,36390.24929884068,52432.74449500376,50265.67581482838,0.14200000000000002,-0.026000000000000002,1.014,192.0,0.0,0.0,0.0,0.0,0.0,0.0,0.0,0.0,0.0,1.4616432189941406,0.0
105.0,20034.986142514485,9937.58558482952,14442.892604219032,8320.50392872142,16344.444912009825,36403.01214492466,53571.29765406819,54354.70394548225,0.14200000000000002,-0.026000000000000002,1.014,192.0,0.0,0.0,0.0,0.0,0.0,0.0,0.0,0.0,0.0,1.4616503715515137,0.0
106.0,20020.435156874082,9941.2959744091,14437.349371594117,8325.264850290401,16352.245670824728,36400.32993559002,53287.631665185894,52268.03449011261,0.14200000000000002,-0.026000000000000002,1.014,192.0,0.0,0.0,0.0,0.0,0.0,0.0,0.0,0.0,0.0,1.4616577625274658,0.0
107.0,20053.605145645757,9941.139512197913,14427.84988020061,8322.895565378138,16347.037714366641,36385.42132203833,52061.54907483448,47882.42106228126,0.14200000000000002,-0.026000000000000002,1.014,192.0,0.0,0.0,0.0,0.0,0.0,0.0,0.0,0.0,0.0,1.9369966983795166,0.0
108.0,20051.16880550013,9934.523395839144,14430.532089535249,8313.083149562259,16337.270002039671,36384.50490051567,52239.580719421,49426.88190065407,0.14200000000000002,-0.026000000000000002,1.014,192.0,0.0,0.0,0.0,0.0,0.0,0.0,0.0,0.0,0.0,1.9372689723968506,0.0
109.0,20054.856843335252,9936.736218540218,14437.729351249856,8312.099672806224,16338.633458451446,36399.30175534508,53417.96468710479,54012.677551827146,0.14200000000000002,-0.026000000000000002,1.014,192.0,0.0,0.0,0.0,0.0,0.0,0.0,0.0,0.0,0.0,1.937286376953125,0.0
110.0,20051.928764811608,9942.413561631867,14434.376589581561,8317.329981008766,16345.495443999225,36402.27453735763,53443.892710672946,53208.73000725866,0.14200000000000002,-0.026000000000000002,1.014,192.0,0.0,0.0,0.0,0.0,0.0,0.0,0.0,0.0,0.0,1.9373018741607666,0.0
111.0,20031.6780843351,9936.333887140023,14425.81587145518,8312.233783272957,16338.99108636273,36381.733284203205,52189.37870137438,48324.67267807397,0.14200000000000002,-0.028,1.01,192.0,4.0,112.0,255.0,32.0,31.0,144.0,0.0,0.0,0.0,1.9373164176940918,0.0
112.0,20020.412805129625,9929.114273680958,14427.04521740022,8306.757605881407,16329.938629858332,36385.10839761596,52081.53153437752,48659.25594082546,0.14200000000000002,-0.028,1.01,192.0,0.0,0.0,0.0,0.0,0.0,0.0,0.0,0.0,0.0,1.9373304843902588,0.0
113.0,20026.403072643647,9929.941288225806,14437.394075083028,8308.79161462684,16332.889060126432,36398.00535416667,53222.63279230986,53376.23398020673,0.14200000000000002,-0.028,1.01,192.0,0.0,0.0,0.0,0.0,0.0,0.0,0.0,0.0,0.0,1.9373445510864258,0.0
114.0,20021.977427241498,9934.25517490568,14436.008266926798,8313.954867596016,16339.639286951935,36396.75365647717,53620.8067680367,53748.52463585432,0.14200000000000002,-0.028,1.01,192.0,0.0,0.0,0.0,0.0,0.0,0.0,0.0,0.0,0.0,1.9374005794525146,0.0
115.0,20029.35350291175,9934.769265028151,14426.061740644187,8311.45147221702,16337.426464250859,36381.84504292549,52390.276180538676,49006.84791884994,0.14200000000000002,-0.028,1.01,192.0,0.0,0.0,0.0,0.0,0.0,0.0,0.0,0.0,0.0,1.937415361404419,0.0
116.0,20049.693590366078,9931.863538248961,14424.251249343306,8309.350408238222,16330.452719980804,36373.46313875474,51971.22567549058,48104.73151263375,0.14200000000000002,-0.028,1.01,192.0,0.0,0.0,0.0,0.0,0.0,0.0,0.0,0.0,0.0,1.9374291896820068,0.0
117.0,20053.180462501106,9932.936421982817,14434.756569237301,8313.530184451363,16333.76077816019,36391.05396164107,53012.2134700076,52652.35038427715,0.14200000000000002,-0.028,1.01,192.0,0.0,0.0,0.0,0.0,0.0,0.0,0.0,0.0,0.0,1.9374439716339111,0.0
118.0,20019.697549307057,9933.785788272118,14437.438778571937,8318.179347298068,16339.035789851641,36405.023801925636,53691.43828051547,54233.02104866756,0.14200000000000002,-0.028,1.01,192.0,0.0,0.0,0.0,0.0,0.0,0.0,0.0,0.0,0.0,1.9374580383300781,0.0
119.0,20023.43029063109,9932.310573138067,14425.905278433,8311.920858850583,16336.085359583542,36390.15989186286,52615.805282092726,49818.57387048887,0.14200000000000002,-0.028,1.01,192.0,0.0,0.0,0.0,0.0,0.0,0.0,0.0,0.0,0.0,1.9374721050262451,0.0
120.0,20047.86074732074,9929.896584736895,14427.648714500514,8306.869364603683,16332.151452559407,36392.26095584166,51911.16653813917,47724.50598770452,0.14200000000000002,-0.028,1.01,192.0,0.0,0.0,0.0,0.0,0.0,0.0,0.0,0.0,0.0,1.937488079071045,0.0
121.0,20045.64792461967,9928.354314369479,14434.398941326017,8310.780919883362,16334.006647349197,36395.367848320944,52778.905961383105,51795.987998960976,0.138,-0.03,1.012,192.0,4.0,80.0,255.0,16.0,31.0,160.0,0.0,0.0,0.0,1.937502384185791,0.0
122.0,20035.38847391468,9933.651677805386,14435.404769826506,8318.939306609549,16342.008571864197,36402.40864782437,53684.06220484522,54604.90937291496,0.138,-0.03,1.012,192.0,0.0,0.0,0.0,0.0,0.0,0.0,0.0,0.0,0.0,1.937516212463379,0.0
123.0,20029.711130823034,9938.72552379674,14432.610801769591,8324.862518890204,16350.18931033484,36398.05005765558,52823.60945029372,50707.50274747643,0.138,-0.03,1.012,192.0,0.0,0.0,0.0,0.0,0.0,0.0,0.0,0.0,0.0,1.937530279159546,0.0
124.0,20047.63722987619,9938.502006352188,14429.146281379019,8321.755626410917,16345.51779574368,36391.612755252456,51904.52807003594,47536.30429939083,0.138,-0.03,1.012,192.0,0.0,0.0,0.0,0.0,0.0,0.0,0.0,0.0,0.0,1.9375441074371338,0.0
125.0,20048.464244421037,9935.372762128445,14436.947040193922,8318.715789164995,16341.338019530538,36394.58553726501,52556.05906916369,50866.06602264238,0.138,-0.03,1.012,192.0,0.0,0.0,0.0,0.0,0.0,0.0,0.0,0.0,0.0,1.9375581741333008,0.0
126.0,20055.996782302474,9942.167692442858,14443.540804808237,8326.807120657817,16350.323420801571,36407.08016241553,53651.20514049592,54488.79206046964,0.138,-0.03,1.012,192.0,0.0,0.0,0.0,0.0,0.0,0.0,0.0,0.0,0.0,1.9375741481781006,0.0
127.0,20033.265058191428,9945.609861088975,14433.661333758992,8332.372705027188,16355.196101092828,36400.687563501306,53128.26372721955,51647.214787866455,0.138,-0.03,1.012,192.0,0.0,0.0,0.0,0.0,0.0,0.0,0.0,0.0,0.0,1.9375879764556885,0.0
128.0,20017.931761495085,9940.692477308809,14424.09478713212,8321.330943266266,16345.942478888332,36388.036476139605,51984.659073908224,47679.13194646024,0.138,-0.03,1.012,192.0,0.0,0.0,0.0,0.0,0.0,0.0,0.0,0.0,0.0,1.9376225471496582,0.0
129.0,20044.128005996707,9937.764398785162,14428.81100521219,8314.088978062748,16337.627629950957,36385.55543250507,52349.77481958566,49996.13612844183,0.138,-0.03,1.012,192.0,0.0,0.0,0.0,0.0,0.0,0.0,0.0,0.0,0.0,1.9376368522644043,0.0
130.0,20056.30970672485,9940.379552886434,14436.209432626896,8315.698303663528,16342.343848031027,36395.54666227659,53526.102426779566,54274.14825846533,0.138,-0.03,1.012,192.0,0.0,0.0,0.0,0.0,0.0,0.0,0.0,0.0,0.0,1.9376518726348877,0.0
131.0,20059.81893060433,9942.3465063985,14427.626362756058,8317.888774620149,16344.959002132298,36383.499072015176,53345.70149728078,52542.93859516842,0.14200000000000002,-0.026000000000000002,1.014,192.0,4.0,112.0,255.0,48.0,31.0,176.0,0.0,0.0,0.0,1.9376661777496338,0.0
132.0,20049.648886877167,9936.758570284674,14415.846993428111,8311.674989661573,16337.404112506405,36367.15994681835,52091.142784493306,48014.20694758975,0.14200000000000002,-0.026000000000000002,1.014,192.0,0.0,0.0,0.0,0.0,0.0,0.0,0.0,0.0,0.0,1.9376821517944336,0.0
133.0,20037.95892452704,9930.388323114912,14426.821699955666,8300.342655222734,16327.32347575706,36386.38244704991,52180.57211405899,49195.764862986194,0.14200000000000002,-0.026000000000000002,1.014,192.0,0.0,0.0,0.0,0.0,0.0,0.0,0.0,0.0,0.0,1.9376964569091797,0.0
134.0,20037.95892452704,9933.696381294296,14436.723522749367,8304.656541902606,16330.542126958624,36393.40089480888,53350.01538396066,53900.62825687269,0.14200000000000002,-0.026000000000000002,1.014,192.0,0.0,0.0,0.0,0.0,0.0,0.0,0.0,0.0,0.0,1.9377105236053467,0.0
135.0,20033.421520402615,9941.63125057593,14436.634115771547,8318.492271720443,16342.299144542116,36398.184168122316,53480.21429541282,53394.80827984909,0.14200000000000002,-0.026000000000000002,1.014,192.0,0.0,0.0,0.0,0.0,0.0,0.0,0.0,0.0,0.0,1.9377243518829346,0.0
136.0,20004.230142143984,9936.915032495861,14424.161842365485,8312.747873395429,16337.985257862241,36385.242508082694,52236.98791706419,48491.21552601046,0.14200000000000002,-0.026000000000000002,1.014,192.0,0.0,0.0,0.0,0.0,0.0,0.0,0.0,0.0,0.0,1.9377381801605225,0.0
137.0,20044.57504088581,9932.958773727272,14424.430063298949,8304.276562246867,16331.167975803373,36384.6390109824,52037.67741175621,48471.791860078796,0.14200000000000002,-0.026000000000000002,1.014,192.0,0.0,0.0,0.0,0.0,0.0,0.0,0.0,0.0,0.0,1.9377517700195312,0.0
138.0,20064.7363143845,9933.808140016574,14433.415464569982,8312.814928628793,16333.425501993359,36391.54570001909,53165.32291952645,53185.39478604732,0.14200000000000002,-0.026000000000000002,1.014,192.0,0.0,0.0,0.0,0.0,0.0,0.0,0.0,0.0,0.0,1.9377679824829102,0.0
139.0,20046.49729090897,9936.669163306853,14434.66716225948,8318.000533342425,16338.544051473626,36398.72060998924,53674.920341362995,53955.36767904374,0.14200000000000002,-0.026000000000000002,1.014,192.0,0.0,0.0,0.0,0.0,0.0,0.0,0.0,0.0,0.0,1.9377825260162354,0.0
140.0,20031.946305268564,9933.048180705093,14421.27846733075,8319.07341707628,16334.52073747167,36379.56516499104,52479.86197231555,49275.739404647284,0.14400000000000002,-0.026000000000000002,1.014,192.0,4.0,128.0,255.0,48.0,31.0,176.0,0.0,0.0,0.0,1.9377961158752441,0.0
141.0,20038.80829081634,9928.15314866938,14419.08799637413,8311.295010005833,16326.138833300929,36372.792586421085,51976.903018582234,48007.61318297544,0.14400000000000002,-0.026000000000000002,1.014,192.0,0.0,0.0,0.0,0.0,0.0,0.0,0.0,0.0,0.0,1.9378101825714111,0.0
142.0,20060.78005561591,9931.72942778223,14429.235688356841,8313.820757129282,16328.999856591208,36382.87322317043,52967.59938807481,52443.74155327577,0.14400000000000002,-0.026000000000000002,1.014,192.0,0.0,0.0,0.0,0.0,0.0,0.0,0.0,0.0,0.0,1.93782377243042,0.0
143.0,20058.813102103843,9937.384419129423,14431.895545947022,8319.811024643306,16337.404112506405,36393.4903017867,53739.1369031831,54389.416204621346,0.14400000000000002,-0.026000000000000002,1.014,192.0,0.0,0.0,0.0,0.0,0.0,0.0,0.0,0.0,0.0,1.937838077545166,0.0
144.0,20044.262116463437,9937.451474362788,14422.686627231435,8320.950963610527,16337.068836339575,36383.09674061498,52721.797254299796,50132.481769619204,0.14400000000000002,-0.026000000000000002,1.014,192.0,0.0,0.0,0.0,0.0,0.0,0.0,0.0,0.0,0.0,1.9378740787506104,0.0
145.0,20022.6256278307,9928.935459725317,14419.915010918978,8310.445643716532,16326.89879261241,36381.50976675865,51920.7554365105,47689.88313554325,0.14400000000000002,-0.026000000000000002,1.014,192.0,0.0,0.0,0.0,0.0,0.0,0.0,0.0,0.0,0.0,1.9378879070281982,0.0
146.0,20013.14848818165,9922.788730000108,14424.09478713212,8306.265867503389,16321.355559987494,36382.85087142597,52702.418291857044,51556.667871078,0.14400000000000002,-0.026000000000000002,1.014,192.0,0.0,0.0,0.0,0.0,0.0,0.0,0.0,0.0,0.0,1.9379017353057861,0.0
147.0,20030.426386645602,9928.622535302942,14426.128795877552,8315.228917029968,16329.983333347242,36387.72355171723,53640.92333804647,54636.49238783031,0.14400000000000002,-0.026000000000000002,1.014,192.0,0.0,0.0,0.0,0.0,0.0,0.0,0.0,0.0,0.0,1.937915563583374,0.0
148.0,20029.44290988957,9932.131759182425,14419.780900452246,8320.16865255459,16337.225298550762,36379.54281324659,52927.76857945545,50985.3349310559,0.14400000000000002,-0.026000000000000002,1.014,192.0,0.0,0.0,0.0,0.0,0.0,0.0,0.0,0.0,0.0,1.937929391860962,0.0
149.0,20033.555630869345,9926.521471324144,14412.874211415556,8304.231858757956,16326.630571678947,36370.60211546446,51915.100445163305,47549.00009024145,0.14400000000000002,-0.026000000000000002,1.014,192.0,0.0,0.0,0.0,0.0,0.0,0.0,0.0,0.0,0.0,1.937943458557129,0.0
150.0,20050.811177588843,9924.018075945149,14421.837260942133,8297.92866682156,16322.048464065609,36380.16866209134,52484.4887834178,50589.73140594142,0.146,-0.028,1.012,192.0,4.0,144.0,255.0,32.0,31.0,160.0,0.0,0.0,0.0,1.9379603862762451,0.0
151.0,20044.999724030462,9929.270735892145,14433.370761081072,8304.857707602705,16328.284600768638,36391.3892378079,53636.274175199775,54463.33342353504,0.146,-0.028,1.012,192.0,0.0,0.0,0.0,0.0,0.0,0.0,0.0,0.0,0.0,1.937974452972412,0.0
152.0,20028.034749988885,9933.606974316475,14428.520432534271,8308.433986715554,16333.425501993359,36387.65649648386,53217.447187596226,51945.49881762252,0.146,-0.028,1.012,192.0,0.0,0.0,0.0,0.0,0.0,0.0,0.0,0.0,0.0,1.9379916191101074,0.0
153.0,20026.33601741028,9928.957811469772,14417.791595195724,8300.387358711643,16324.32834200005,36372.6361242099,52011.57057423241,47753.85382817434,0.146,-0.028,1.012,192.0,0.0,0.0,0.0,0.0,0.0,0.0,0.0,0.0,0.0,1.9380056858062744,0.0
154.0,20032.415691902126,9923.72750326723,14422.038426642232,8295.849954587216,16319.99210357572,36376.16769983384,52300.55627829508,49741.192131184594,0.146,-0.028,1.012,192.0,0.0,0.0,0.0,0.0,0.0,0.0,0.0,0.0,0.0,1.9380197525024414,0.0
155.0,20042.25045946246,9927.661410291365,14430.71090349089,8303.40484421311,16328.7539874022,36387.43297903931,53482.09184194706,54158.29916695347,0.146,-0.028,1.012,192.0,0.0,0.0,0.0,0.0,0.0,0.0,0.0,0.0,0.0,1.9380340576171875,0.0
156.0,20011.09212769176,9930.276564392634,14427.291086589228,8309.283353004856,16335.794786905622,36388.25999358416,53408.912230600385,52786.68436845355,0.146,-0.028,1.012,192.0,0.0,0.0,0.0,0.0,0.0,0.0,0.0,0.0,0.0,1.9380645751953125,0.0
157.0,20016.18832542757,9928.600183558487,14417.18809809543,8304.991818069437,16331.167975803373,36374.51367074414,52151.112514866894,48154.28533009116,0.146,-0.028,1.012,192.0,0.0,0.0,0.0,0.0,0.0,0.0,0.0,0.0,0.0,1.9380807876586914,0.0
158.0,20044.463282163535,9928.466073091755,14420.607914997092,8309.126890793668,16327.077606568053,36375.49714750018,52162.288387094544,48980.718729581684,0.146,-0.028,1.012,192.0,0.0,0.0,0.0,0.0,0.0,0.0,0.0,0.0,0.0,1.9380981922149658,0.0
159.0,20058.231956748004,9934.054009205582,14432.14141513603,8312.97139083998,16330.296257769616,36392.41741805284,53298.047578102065,53760.92985402702,0.146,-0.028,1.012,192.0,0.0,0.0,0.0,0.0,0.0,0.0,0.0,0.0,0.0,1.9381144046783447,0.0
160.0,20060.422427704623,9941.385381386923,14438.176386138963,8324.16961481209,16342.656772453402,36399.860548956465,53548.09654332358,53541.055743820165,0.148,-0.03,1.006,192.0,4.0,160.0,255.0,16.0,31.0,112.0,0.0,0.0,0.0,1.9381301403045654,0.0
161.0,20041.602258873256,9938.054971463082,14423.804214454201,8322.113254322203,16338.588754962535,36382.582650492506,52342.801075315605,48718.48806363202,0.148,-0.03,1.006,192.0,0.0,0.0,0.0,0.0,0.0,0.0,0.0,0.0,0.0,1.9381458759307861,0.0
162.0,20040.86465130623,9931.505910337677,14422.977199909354,8313.97721934047,16329.08926356903,36382.67205747033,52031.9330134312,48302.36563710757,0.148,-0.03,1.006,192.0,0.0,0.0,0.0,0.0,0.0,0.0,0.0,0.0,0.0,1.938164472579956,0.0
163.0,20057.7849218589,9933.092884194004,14431.962601180388,8319.498100220932,16331.61501069248,36392.238604097205,53121.51350039405,52960.871512993755,0.148,-0.03,1.006,192.0,0.0,0.0,0.0,0.0,0.0,0.0,0.0,0.0,0.0,1.9381816387176514,0.0
164.0,20067.239709763493,9940.804236031085,14436.388246582539,8329.154053825623,16341.829757908556,36405.76140949266,53717.54511803927,54095.2672475895,0.148,-0.03,1.006,192.0,0.0,0.0,0.0,0.0,0.0,0.0,0.0,0.0,0.0,1.938197374343872,0.0
165.0,20051.59348864478,9940.245442419702,14428.274563345261,8327.567079969296,16341.338019530538,36393.57970876452,52569.045432692226,49506.454110914965,0.148,-0.03,1.006,192.0,0.0,0.0,0.0,0.0,0.0,0.0,0.0,0.0,0.0,1.938213586807251,0.0
166.0,20051.39232294468,9936.132721439924,14427.156976122496,8323.119082822692,16336.063007839086,36390.696333729786,51942.503683865514,47842.70201238418,0.148,-0.03,1.006,192.0,0.0,0.0,0.0,0.0,0.0,0.0,0.0,0.0,0.0,1.9382295608520508,0.0
167.0,20061.07062829383,9936.266831906656,14434.9577349374,8323.655524689619,16337.04648459512,36397.334801833014,52860.31101468933,52113.919212093264,0.148,-0.03,1.006,192.0,0.0,0.0,0.0,0.0,0.0,0.0,0.0,0.0,0.0,1.9382457733154297,0.0
168.0,20048.9336310546,9940.804236031085,14437.23761287184,8334.809045172817,16344.66842945438,36401.939261190804,53720.76376924083,54410.315085687056,0.148,-0.03,1.006,192.0,0.0,0.0,0.0,0.0,0.0,0.0,0.0,0.0,0.0,1.9382641315460205,0.0
169.0,20027.855936033244,9939.798407530596,14427.447548800415,8334.27260330589,16344.400208520916,36390.897499429884,52787.712548698495,50358.12262989553,0.148,-0.03,1.006,192.0,0.0,0.0,0.0,0.0,0.0,0.0,0.0,0.0,0.0,1.938279628753662,0.0
170.0,20058.433122448103,9935.708038295274,14422.32899932015,8322.381475255666,16334.788958405134,36385.26485982715,51899.65538974469,47586.9310005821,0.152,-0.03,1.01,192.0,4.0,192.0,255.0,16.0,31.0,144.0,0.0,0.0,0.0,1.938295602798462,0.0
171.0,20068.290241752893,9930.947116726295,14426.106444133096,8316.592373441741,16327.569344946069,36384.191976093294,52606.641066866054,51261.24486461221,0.152,-0.03,1.01,192.0,0.0,0.0,0.0,0.0,0.0,0.0,0.0,0.0,0.0,1.93831205368042,0.0
172.0,20044.82091007482,9931.662372548864,14431.716731991379,8322.627344444674,16334.073702582564,36393.02091515314,53587.525020542744,54548.00183153175,0.152,-0.03,1.01,192.0,0.0,0.0,0.0,0.0,0.0,0.0,0.0,0.0,0.0,1.9383277893066406,0.0
173.0,20045.49146240848,9933.361105127467,14425.905278433,8317.911126364605,16336.621801450468,36386.40479879437,52983.603237104806,51181.58324737349,0.152,-0.03,1.01,192.0,0.0,0.0,0.0,0.0,0.0,0.0,0.0,0.0,0.0,1.9383440017700195,0.0
174.0,20051.124102011217,9931.572965571042,14417.881002173544,8313.865460618194,16329.916278113877,36370.02097010863,51930.23257615955,47541.221683171,0.152,-0.03,1.01,192.0,0.0,0.0,0.0,0.0,0.0,0.0,0.0,0.0,0.0,1.9383628368377686,0.0
175.0,20028.280619177895,9926.834395746517,14424.251249343306,8312.412597228598,16327.681103668345,36367.87520264092,52428.98940193527,50299.985742567274,0.152,-0.03,1.01,192.0,0.0,0.0,0.0,0.0,0.0,0.0,0.0,0.0,0.0,1.9383788108825684,0.0
176.0,20041.758721084443,9936.57975632903,14437.170557638474,8324.102559578725,16340.645115452424,36385.98011564972,53570.24712207879,54339.19183483027,0.152,-0.03,1.01,192.0,0.0,0.0,0.0,0.0,0.0,0.0,0.0,0.0,0.0,1.938394546508789,0.0
177.0,20063.10463703926,9945.58750934452,14436.321191349172,8329.086998592258,16349.921089401376,36388.036476139605,53242.27997568608,52141.30009905101,0.152,-0.03,1.01,192.0,0.0,0.0,0.0,0.0,0.0,0.0,0.0,0.0,0.0,1.9384105205535889,0.0
178.0,20055.773264857922,9940.15603544188,14428.073397645165,8319.587507198752,16342.61206896449,36378.62639172392,52021.40534179275,47799.831366518905,0.152,-0.03,1.01,192.0,0.0,0.0,0.0,0.0,0.0,0.0,0.0,0.0,0.0,1.9384260177612305,0.0
179.0,20049.335962454792,9932.48938709371,14428.18515636744,8310.289181505344,16333.291391526627,36372.97140037673,52226.14732100336,49454.21808412291,0.148,-0.032,1.008,192.0,4.0,160.0,255.0,0.0,31.0,128.0,0.0,0.0,0.0,1.9384419918060303,0.0
180.0,20032.505098879945,9933.875195249939,14433.549575036715,8312.12202455068,16338.476996240259,36386.82948193902,53400.955009574296,53970.522161784436,0.148,-0.032,1.008,192.0,0.0,0.0,0.0,0.0,0.0,0.0,0.0,0.0,0.0,1.9384605884552002,0.0
181.0,20028.682950578088,9940.513663353166,14429.459205801393,8323.07437933378,16345.674257954868,36387.3882755504,53455.33680383406,52981.077489981355,0.148,-0.032,1.008,192.0,0.0,0.0,0.0,0.0,0.0,0.0,0.0,0.0,0.0,1.9384984970092773,0.0
182.0,20036.193136715072,9940.513663353166,14421.323170819662,8318.715789164995,16339.907507885398,36376.39121727839,52172.860762221906,48258.53386623071,0.148,-0.032,1.008,192.0,0.0,0.0,0.0,0.0,0.0,0.0,0.0,0.0,0.0,1.938513994216919,0.0
183.0,20058.29901198137,9938.390247629912,14425.011208654787,8309.88685010515,16330.98916184773,36378.55933649056,52077.865848286856,48720.231499699534,0.148,-0.032,1.008,192.0,0.0,0.0,0.0,0.0,0.0,0.0,0.0,0.0,0.0,1.9385299682617188,0.0
184.0,20071.955927843563,9944.045238977104,14435.069493659676,8319.78867289885,16337.38176076195,36391.70216223028,53169.81562016197,53507.7292928373,0.148,-0.032,1.008,192.0,0.0,0.0,0.0,0.0,0.0,0.0,0.0,0.0,0.0,1.9385459423065186,0.0
185.0,20071.710058654557,9951.68953558082,14438.913993705988,8330.629268959674,16349.8093306791,36398.87707220043,53529.56694717013,53587.10033739809,0.148,-0.032,1.008,192.0,0.0,0.0,0.0,0.0,0.0,0.0,0.0,0.0,0.0,1.9385614395141602,0.0
186.0,20049.29125896588,9949.275547179646,14428.05104590071,8325.331905523766,16346.90360389991,36387.36592380595,52322.57274658355,48819.18267240318,0.148,-0.032,1.008,192.0,0.0,0.0,0.0,0.0,0.0,0.0,0.0,0.0,0.0,1.93858003616333,0.0
187.0,20052.666372378633,9943.575852343542,14429.794481968223,8318.827547887271,16339.482824740748,36381.82269118103,51930.61255581529,48047.2428258947,0.148,-0.032,1.008,192.0,0.0,0.0,0.0,0.0,0.0,0.0,0.0,0.0,0.0,1.938596248626709,0.0
188.0,20065.093942295785,9942.570023843053,14439.249269872818,8318.358161253711,16338.745217173722,36389.89167092939,53014.62745840877,52674.29979733226,0.148,-0.032,1.008,192.0,0.0,0.0,0.0,0.0,0.0,0.0,0.0,0.0,0.0,1.9386119842529297,0.0
189.0,20055.795616602376,9946.548634356099,14440.500967562315,8329.55638522582,16346.52362424417,36400.754618734674,53698.68024571899,54176.873466595825,0.14400000000000002,-0.036000000000000004,1.01,192.0,4.0,128.0,254.0,224.0,31.0,144.0,0.0,0.0,0.0,1.9386279582977295,0.0
190.0,20029.420558145113,9943.598204087997,14427.42519705596,8323.45435898952,16342.56736547558,36388.4388075398,52616.9675728044,49738.17464568313,0.14400000000000002,-0.036000000000000004,1.01,192.0,0.0,0.0,0.0,0.0,0.0,0.0,0.0,0.0,0.0,1.9386496543884277,0.0
191.0,20046.184366486596,9942.413561631867,14427.67106624497,8316.391207741644,16335.772435161167,36386.18128134981,51932.62421281627,47753.40679328523,0.14400000000000002,-0.036000000000000004,1.01,192.0,0.0,0.0,0.0,0.0,0.0,0.0,0.0,0.0,0.0,1.9386732578277588,0.0
192.0,20057.181424758604,9942.391209887412,14435.315362848683,8320.16865255459,16338.164071817884,36395.07727564302,52802.531755272365,51867.6923951736,0.14400000000000002,-0.036000000000000004,1.01,192.0,0.0,0.0,0.0,0.0,0.0,0.0,0.0,0.0,0.0,1.9386920928955078,0.0
193.0,20047.793692087376,9946.705096567286,14439.361028595094,8329.914013137104,16347.57415623357,36407.3930868379,53715.35464708265,54475.962159152295,0.14400000000000002,-0.036000000000000004,1.01,192.0,0.0,0.0,0.0,0.0,0.0,0.0,0.0,0.0,0.0,1.9387083053588867,0.0
194.0,20030.53814536788,9948.895567523905,14429.99564766832,8330.226937559479,16351.373952790971,36396.75365647717,52873.27502647341,50661.07817424276,0.14400000000000002,-0.036000000000000004,1.01,192.0,0.0,0.0,0.0,0.0,0.0,0.0,0.0,0.0,0.0,1.9387240409851074,0.0
195.0,20054.856843335252,9948.11325646797,14426.9558104224,8326.896527635638,16347.864728911487,36391.00925815216,51933.02654421646,47613.32841078382,0.14400000000000002,-0.036000000000000004,1.01,192.0,0.0,0.0,0.0,0.0,0.0,0.0,0.0,0.0,0.0,1.9387400150299072,0.0
196.0,20076.64979417918,9946.43687563382,14432.990781425331,8323.968449111993,16343.752007931711,36397.11128438846,52557.087249408636,51080.955693835705,0.14400000000000002,-0.036000000000000004,1.01,192.0,0.0,0.0,0.0,0.0,0.0,0.0,0.0,0.0,0.0,1.9387571811676025,0.0
197.0,20077.49916046848,9951.68953558082,14444.837205986645,8335.479597506475,16355.75489470421,36414.25507238568,53616.22466042336,54559.13300027049,0.14400000000000002,-0.036000000000000004,1.01,192.0,0.0,0.0,0.0,0.0,0.0,0.0,0.0,0.0,0.0,1.9387731552124023,0.0
198.0,20069.54193944239,9953.656489092886,14435.67299075997,8340.396981286643,16359.867615683988,36403.32506934703,53137.27148023504,51581.16538300102,0.14400000000000002,-0.036000000000000004,1.01,192.0,0.0,0.0,0.0,0.0,0.0,0.0,0.0,0.0,0.0,1.9387919902801514,0.0
199.0,20056.35441021376,9947.330945412034,14427.581659267147,8328.483501491964,16350.815159179589,36388.10353137297,52010.56474573192,47699.53908914794,0.14200000000000002,-0.034,1.012,192.0,4.0,112.0,254.0,240.0,31.0,160.0,0.0,0.0,0.0,1.938809871673584,0.0
200.0,20058.567232914833,9943.329983154534,14435.695342504425,8319.900431621127,16345.718961443778,36397.267746599646,52422.73091348779,50139.88019703391,0.14200000000000002,-0.034,1.012,192.0,0.0,0.0,0.0,0.0,0.0,0.0,0.0,0.0,0.0,1.9388256072998047,0.0
201.0,20048.26307872094,9946.570986100554,14446.737104265345,8329.22110905899,16353.720885958779,36416.8925782314,53581.51240128427,54355.061573393534,0.14200000000000002,-0.034,1.012,192.0,0.0,0.0,0.0,0.0,0.0,0.0,0.0,0.0,0.0,1.9388415813446045,0.0
202.0,20042.406921673646,9950.281375680135,14439.696304761925,8330.182234070568,16355.866653426488,36407.86247347146,53360.99009048821,52506.57230693964,0.14200000000000002,-0.034,1.012,192.0,0.0,0.0,0.0,0.0,0.0,0.0,0.0,0.0,0.0,1.9388573169708252,0.0
203.0,20040.887003050688,9945.945137255805,14428.118101134074,8323.811986900806,16347.060066111097,36390.562223263056,52095.90370606229,48001.39939801686,0.14200000000000002,-0.034,1.012,192.0,0.0,0.0,0.0,0.0,0.0,0.0,0.0,0.0,0.0,1.938873291015625,0.0
204.0,20021.44098537457,9937.54088134061,14428.699246489912,8315.810062385806,16338.722865429267,36388.72938021772,52220.33586744498,49303.008532882755,0.14200000000000002,-0.034,1.012,192.0,0.0,0.0,0.0,0.0,0.0,0.0,0.0,0.0,0.0,1.938892126083374,0.0
205.0,20056.10854102475,9943.598204087997,14437.52818554976,8316.726483908473,16341.695647441824,36402.095723401995,53409.58278293405,53919.895460593165,0.14200000000000002,-0.034,1.012,192.0,0.0,0.0,0.0,0.0,0.0,0.0,0.0,0.0,0.0,1.9389081001281738,0.0
206.0,20072.671183666134,9949.476712879743,14433.61663027008,8324.817815401295,16347.641211466935,36399.34645883399,53535.84778736208,53279.227409270694,0.14200000000000002,-0.034,1.012,192.0,0.0,0.0,0.0,0.0,0.0,0.0,0.0,0.0,0.0,1.9389238357543945,0.0
207.0,20063.64107890619,9946.392172144911,14421.747853964313,8320.369818254689,16344.46726375428,36381.21919408074,52265.21817031124,48520.78688392483,0.14200000000000002,-0.034,1.012,192.0,0.0,0.0,0.0,0.0,0.0,0.0,0.0,0.0,0.0,1.9389400482177734,0.0
208.0,20047.480767665,9938.032619718626,14421.926667919955,8316.726483908473,16335.146586316418,36374.49131899969,52077.30705467547,48636.74773415896,0.14200000000000002,-0.034,1.012,192.0,0.0,0.0,0.0,0.0,0.0,0.0,0.0,0.0,0.0,1.9389557838439941,0.0
209.0,20040.641133861678,9938.993744730204,14431.537918035738,8322.113254322203,16337.962906117787,36378.42522602382,53129.82834933142,53357.92790149783,0.146,-0.032,1.006,192.0,4.0,144.0,255.0,0.0,31.0,112.0,0.0,0.0,0.0,1.938971757888794,0.0
210.0,20055.6838578801,9948.560291357076,14434.62245877057,8326.673010191085,16348.28941205614,36385.46602552725,53628.18284370695,53845.46415155699,0.146,-0.032,1.006,192.0,0.0,0.0,0.0,0.0,0.0,0.0,0.0,0.0,0.0,1.9389901161193848,0.0
211.0,20064.669259151135,9951.018983247159,14422.351351064606,8324.817815401295,16344.489615498736,36373.23962131019,52467.590864609585,49190.78042397266,0.146,-0.032,1.006,192.0,0.0,0.0,0.0,0.0,0.0,0.0,0.0,0.0,0.0,1.9390060901641846,0.0
212.0,20057.33788696979,9944.089942466015,14423.625400498559,8310.73621639445,16332.889060126432,36369.95391487526,51970.130440012275,48025.04754365057,0.146,-0.032,1.006,192.0,0.0,0.0,0.0,0.0,0.0,0.0,0.0,0.0,0.0,1.9390218257904053,0.0
213.0,20060.489482937992,9943.553500599088,14434.555403537202,8313.641943173641,16333.827833393556,36379.27459231312,52963.62077756176,52483.77352759523,0.146,-0.032,1.006,192.0,0.0,0.0,0.0,0.0,0.0,0.0,0.0,0.0,0.0,1.9390380382537842,0.0
214.0,20064.44574170658,9949.856692535484,14436.90233670501,8321.062722332803,16342.008571864197,36386.9412406613,53707.30801907874,54314.44845371824,0.146,-0.032,1.006,192.0,0.0,0.0,0.0,0.0,0.0,0.0,0.0,0.0,0.0,1.9390544891357422,0.0
215.0,20049.134796754694,9949.074381479548,14425.771167966268,8321.867385133193,16340.935688130343,36373.06080735455,52685.654483515566,50023.69582935522,0.146,-0.032,1.006,192.0,0.0,0.0,0.0,0.0,0.0,0.0,0.0,0.0,0.0,1.939070463180542,0.0
216.0,20038.6294768607,9941.810064531574,14422.843089442622,8311.205603028013,16331.436196736837,36367.91990612983,51921.56009931089,47697.21450772459,0.146,-0.032,1.006,192.0,0.0,0.0,0.0,0.0,0.0,0.0,0.0,0.0,0.0,1.939089059829712,0.0
217.0,20045.737331597487,9940.290145908612,14432.744912236323,8311.78674838385,16330.251554280705,36375.43009226681,52730.49208289291,51614.424778750516,0.146,-0.032,1.006,192.0,0.0,0.0,0.0,0.0,0.0,0.0,0.0,0.0,0.0,1.9391047954559326,0.0
218.0,20042.78690132939,9945.96748900026,14439.04810417272,8318.089940320247,16338.722865429267,36388.930545917814,53705.07284463321,54530.25454643423,0.15,-0.03,1.008,192.0,4.0,176.0,255.0,16.0,31.0,128.0,0.0,0.0,0.0,1.9391205310821533,0.0
219.0,20022.78209004189,9945.565157600066,14428.520432534271,8314.580716440763,16341.069798597075,36376.65943821186,52935.12230338124,50944.11831428031,0.15,-0.03,1.008,192.0,0.0,0.0,0.0,0.0,0.0,0.0,0.0,0.0,0.0,1.9391365051269531,0.0
220.0,20040.976410028507,9942.234747676224,14425.860574944089,8306.042350058837,16335.727731672256,36380.2357173247,51917.1568056532,47598.688018165594,0.15,-0.03,1.008,192.0,0.0,0.0,0.0,0.0,0.0,0.0,0.0,0.0,0.0,1.9391520023345947,0.0
221.0,20075.465151723045,9941.720657553751,14431.694380246923,8304.410672713599,16332.218507792773,36385.443673782785,52473.82700131262,50818.03212380793,0.15,-0.03,1.008,192.0,0.0,0.0,0.0,0.0,0.0,0.0,0.0,0.0,0.0,1.9391679763793945,0.0
222.0,20072.91705285514,9947.15213145639,14444.52428156427,8316.570021697285,16344.064932354086,36399.05588615607,53602.791262005725,54465.21097006929,0.15,-0.03,1.008,192.0,0.0,0.0,0.0,0.0,0.0,0.0,0.0,0.0,0.0,1.9391865730285645,0.0
223.0,20062.165863772138,9949.856692535484,14430.912069190988,8317.955829853516,16343.95317363181,36386.5389092611,53175.38120453134,51815.00933349244,0.15,-0.03,1.008,192.0,0.0,0.0,0.0,0.0,0.0,0.0,0.0,0.0,0.0,1.9392025470733643,0.0
224.0,20053.62749739021,9944.805198288585,14423.401883054004,8308.009303570903,16334.56544096058,36380.548641747075,52008.15075733075,47718.71688589059,0.15,-0.03,1.008,192.0,0.0,0.0,0.0,0.0,0.0,0.0,0.0,0.0,0.0,1.9392180442810059,0.0
225.0,20042.384569929192,9940.983049986728,14431.113234891087,8306.3105709923,16331.123272314462,36385.60013599398,52329.18886294233,49822.68659146865,0.15,-0.03,1.008,192.0,0.0,0.0,0.0,0.0,0.0,0.0,0.0,0.0,0.0,1.9392340183258057,0.0
226.0,20035.142604725672,9944.134645954926,14440.81389198469,8316.16769029709,16338.409941006894,36398.09476114449,53503.05777824614,54195.134841815816,0.15,-0.03,1.008,192.0,0.0,0.0,0.0,0.0,0.0,0.0,0.0,0.0,0.0,1.9392497539520264,0.0
227.0,20012.47793584799,9947.330945412034,14435.628287271058,8322.604992700219,16345.718961443778,36396.59719426599,53405.89474509892,52725.26177469036,0.15,-0.03,1.008,192.0,0.0,0.0,0.0,0.0,0.0,0.0,0.0,0.0,0.0,2.4161489009857178,0.0
228.0,20057.82962534781,9949.901396024394,14426.195851110919,8321.241536288446,16343.66260095389,36380.92862140282,52133.633450702844,48111.7052569038,0.154,-0.034,1.01,192.0,4.0,208.0,254.0,240.0,31.0,144.0,0.0,0.0,0.0,2.416800022125244,0.0
229.0,20092.787753675908,9946.705096567286,14429.749778479312,8314.133681551657,16335.638324694435,36378.335819046,52149.83846543294,49027.67974468228,0.154,-0.034,1.01,192.0,0.0,0.0,0.0,0.0,0.0,0.0,0.0,0.0,0.0,2.4169349670410156,0.0
230.0,20078.97437560253,9947.956794256783,14440.635078029047,8320.213356043501,16340.488653241237,36389.846967440484,53308.64230497388,53690.47715550389,0.154,-0.034,1.01,192.0,0.0,0.0,0.0,0.0,0.0,0.0,0.0,0.0,0.0,2.416999578475952,0.0
231.0,20064.512796939947,9953.656489092886,14441.730313507356,8324.974277612482,16350.14460684593,36391.188072107805,53566.76024994376,53463.22696962678,0.154,-0.034,1.01,192.0,0.0,0.0,0.0,0.0,0.0,0.0,0.0,0.0,0.0,2.4170408248901367,0.0
232.0,20057.851977092265,9954.707021082286,14432.633153514047,8331.344524782244,16351.530415002158,36376.212403322745,52291.146193879395,48673.42694681013,0.154,-0.034,1.01,192.0,0.0,0.0,0.0,0.0,0.0,0.0,0.0,0.0,0.0,2.4170970916748047,0.0
233.0,20037.176613471107,9948.58264310153,14429.123929634563,8327.477672991476,16343.997877120719,36372.18908932079,51985.977826831084,48436.74432477287,0.154,-0.034,1.01,192.0,0.0,0.0,0.0,0.0,0.0,0.0,0.0,0.0,0.0,2.41713809967041,0.0
234.0,20061.83058760531,9950.191968702313,14445.463054831393,8324.460187490009,16346.411865521894,36389.91402267385,53042.83535991137,53062.3260810764,0.154,-0.034,1.01,192.0,0.0,0.0,0.0,0.0,0.0,0.0,0.0,0.0,0.0,2.4171864986419678,0.0
